# WAVELENGTH_UNIT	AA
# COMPNAME       	HST_WFC3_F410M
# NAME           	HST_WFC3_F410M
# DETECTOR       	photon
#
## WAVELENGTH	None	AA
## THROUGHPUT	None	filter throughput definition
#
WAVELENGTH,THROUGHPUT
1918.635254,0.000000
1919.635254,0.000000
1920.635254,0.000002
1940.638306,0.000001
1960.641357,0.000001
1980.644653,0.000001
2000.648193,0.000000
2040.655273,0.000001
2060.658936,0.000001
2080.662842,0.000000
2100.666748,0.000001
2120.670654,0.000000
2140.674561,0.000000
2160.678711,0.000000
2180.682861,0.000000
2220.691162,0.000000
2240.695312,0.000000
2260.699707,0.000000
2280.704102,0.000001
2320.712891,0.000000
2340.717285,0.000000
2360.721680,0.000000
2380.726074,0.000000
2400.730713,0.000000
2420.735107,0.000000
2460.744385,0.000000
2480.749023,0.000000
2540.762939,0.000000
2560.767578,0.000000
2600.777100,0.000000
2620.781982,0.000000
2640.786621,0.000000
2660.791504,0.000000
2700.801025,0.000000
2720.805908,0.000000
2740.810791,0.000000
2760.815674,0.000000
2780.820312,0.000000
2800.825195,0.000000
2860.840088,0.000000
2900.849854,0.000000
2980.869629,0.000001
3000.874756,0.000000
3020.879639,0.000000
3040.884766,0.000000
3060.889648,0.000000
3100.899658,0.000000
3120.904785,0.000000
3160.914795,0.000000
3180.919922,0.000001
3200.924805,0.000001
3220.929932,0.000000
3260.940186,0.000000
3320.955322,0.000000
3360.965576,0.000000
3380.970703,0.000000
3400.975830,0.000000
3420.980957,0.000000
3460.991211,0.000000
3480.996338,0.000001
3501.001465,0.000002
3521.006592,0.000002
3541.011719,0.000000
3561.016846,0.000000
3581.021973,0.000001
3601.027100,0.000003
3621.032227,0.000000
3641.037598,0.000000
3661.042480,0.000000
3721.058105,0.000000
3781.073730,0.000000
3801.078857,0.000000
3821.083984,0.000001
3841.089355,0.000001
3861.094482,0.000001
3881.099609,0.000002
3901.104980,0.000011
3921.110107,0.000044
3941.115479,0.000106
3943.615967,0.000115
3946.116699,0.000167
3948.617188,0.000252
3951.117920,0.000212
3953.618652,0.000305
3956.119385,0.000413
3958.619873,0.000683
3961.120605,0.001095
3963.621094,0.001318
3966.121826,0.001290
3968.622559,0.001126
3971.123291,0.001114
3973.623779,0.001400
3976.124512,0.002175
3978.625000,0.003819
3981.125732,0.006540
3983.626465,0.009881
3986.127197,0.012409
3988.627686,0.014645
3991.128418,0.018940
3993.629150,0.029250
3996.129639,0.050328
3998.630371,0.081871
4001.131104,0.112911
4003.631592,0.130848
4006.132324,0.142975
4008.633057,0.169394
4011.133545,0.225368
4013.634277,0.316904
4016.135010,0.439749
4018.635498,0.577777
4021.136230,0.704965
4023.636963,0.789205
4026.137695,0.815751
4028.638184,0.799365
4031.138916,0.777675
4033.639404,0.784612
4036.140137,0.827998
4038.640869,0.889543
4041.141602,0.943984
4043.642090,0.973721
4046.142822,0.981148
4048.643311,0.979975
4051.144043,0.977942
4053.644775,0.974624
4056.145508,0.964293
4058.645996,0.946171
4061.146729,0.925211
4063.647461,0.908773
4066.147949,0.902988
4068.648682,0.906615
4071.149414,0.916810
4073.649902,0.930196
4076.150635,0.942270
4078.651367,0.949613
4081.151855,0.949183
4083.652588,0.940347
4086.153320,0.924713
4088.653809,0.905063
4091.154541,0.885905
4093.655273,0.870786
4096.155762,0.862876
4098.656738,0.863186
4101.157227,0.869813
4103.657715,0.880013
4106.158691,0.893316
4108.659180,0.909786
4111.159668,0.929284
4113.660645,0.949804
4116.161133,0.965113
4118.661621,0.966237
4121.162598,0.947117
4123.663086,0.911012
4126.163574,0.870214
4128.664551,0.839403
4131.165039,0.829388
4133.665527,0.844498
4136.166504,0.879591
4138.666992,0.922174
4141.167480,0.957427
4143.668457,0.973923
4146.168945,0.970178
4148.669434,0.954538
4151.170410,0.939297
4153.670898,0.932677
4156.171387,0.936409
4158.672363,0.946889
4161.172852,0.958765
4163.673828,0.968438
4166.174316,0.975585
4168.674805,0.979819
4171.175293,0.981111
4173.676270,0.981275
4176.176758,0.976775
4178.677734,0.962896
4181.178223,0.931435
4183.678711,0.873997
4186.179688,0.792502
4188.680176,0.699476
4191.180664,0.615697
4193.681641,0.552990
4196.182129,0.511934
4198.682617,0.478408
4201.183594,0.432854
4203.684082,0.365153
4206.184570,0.284283
4208.685547,0.208445
4211.186035,0.151371
4213.686523,0.113905
4216.187500,0.090799
4218.687988,0.076592
4221.188477,0.068020
4223.689453,0.061780
4226.189941,0.054665
4228.690430,0.044298
4231.191406,0.031903
4233.691895,0.020750
4236.192383,0.012914
4238.693359,0.008240
4241.193848,0.005739
4243.694824,0.004469
4246.195312,0.003971
4248.695801,0.003936
4251.196289,0.004372
4253.697266,0.005130
4256.197754,0.005815
4258.698730,0.005902
4261.199219,0.005023
4263.699707,0.003898
4266.200684,0.002809
4268.701172,0.002084
4271.201660,0.001516
4273.702637,0.001104
4276.203125,0.000834
4278.703613,0.000590
4281.204590,0.000494
4283.705078,0.000413
4286.205566,0.000358
4288.706543,0.000387
4321.214844,0.000187
4341.220215,0.000108
4361.225586,0.000097
4381.230469,0.000026
4401.235840,0.000023
4421.241211,0.000013
4441.246582,0.000007
4461.251953,0.000009
4481.257324,0.000002
4501.262207,0.000001
4521.267578,0.000001
4541.272949,0.000002
4561.278320,0.000002
4581.283691,0.000005
4601.288574,0.000008
4621.293945,0.000014
4641.299316,0.000017
4661.304688,0.000011
4681.310059,0.000010
4701.315430,0.000012
4721.320312,0.000015
4741.325684,0.000018
4761.331055,0.000010
4781.336426,0.000004
4801.341797,0.000003
4821.347168,0.000002
4841.352539,0.000002
4861.357422,0.000005
4881.362793,0.000005
4901.368164,0.000005
4921.373535,0.000005
4941.378906,0.000002
4961.384277,0.000001
4981.389648,0.000002
5001.395020,0.000001
5021.399902,0.000001
5041.405273,0.000000
5061.410645,0.000000
5081.416016,0.000000
5101.421387,0.000000
5161.437500,0.000000
5181.442871,0.000000
5201.448242,0.000000
5221.453613,0.000000
5321.479980,0.000000
5401.501465,0.000000
5441.512207,0.000000
5461.517578,0.000000
5481.522461,0.000000
5521.533203,0.000000
5541.538574,0.000000
5561.543945,0.000000
5581.549316,0.000000
5601.554688,0.000001
5621.560059,0.000003
5641.565430,0.000008
5661.570801,0.000012
5681.576172,0.000004
5701.581543,0.000019
5721.586914,0.000043
5741.592285,0.000014
5761.597656,0.000004
5781.603027,0.000001
5821.613770,0.000000
5841.619141,0.000002
5861.624512,0.000001
5881.629883,0.000001
5901.634766,0.000002
5921.640625,0.000001
5941.645508,0.000000
5961.650879,0.000000
5981.656738,0.000002
6001.661621,0.000001
6021.666992,0.000001
6041.672363,0.000001
6061.677734,0.000000
6081.683105,0.000000
6101.688477,0.000001
6121.693848,0.000001
6141.699219,0.000000
6161.704590,0.000002
6181.709961,0.000001
6201.715332,0.000000
6221.720703,0.000006
6241.726074,0.000007
6261.731445,0.000000
6281.736816,0.000001
6301.742188,0.000000
6321.747559,0.000000
6341.752930,0.000000
6361.758301,0.000000
6381.763672,0.000000
6401.769043,0.000001
6441.779785,0.000000
6461.785156,0.000001
6481.790527,0.000001
6541.806641,0.000001
6561.812012,0.000004
6581.817383,0.000000
6601.822754,0.000000
6641.833496,0.000001
6661.838867,0.000000
6681.844238,0.000000
6701.849609,0.000001
6721.854980,0.000001
6761.865723,0.000000
6781.871094,0.000001
6821.882324,0.000001
6841.887695,0.000001
6861.892578,0.000000
6881.898438,0.000001
6901.903809,0.000002
6921.909180,0.000001
6941.914551,0.000001
6981.925293,0.000001
7001.930664,0.000001
7021.936035,0.000001
7041.941406,0.000001
7061.946777,0.000001
7081.952148,0.000002
7101.957520,0.000007
7121.962891,0.000005
7141.968262,0.000002
7161.973633,0.000001
7221.989746,0.000001
7241.995117,0.000001
7262.000488,0.000003
7282.005859,0.000008
7302.011230,0.000008
7322.016602,0.000002
7342.021973,0.000001
7362.027344,0.000002
7382.032715,0.000002
7402.038086,0.000001
7422.043457,0.000001
7442.049316,0.000001
7462.054688,0.000001
7482.060059,0.000001
7502.065430,0.000001
7522.070801,0.000000
7562.081543,0.000001
7582.086914,0.000000
7602.092285,0.000001
7622.097656,0.000001
7642.103027,0.000002
7662.108398,0.000001
7682.113770,0.000000
7722.124512,0.000000
7742.129883,0.000000
7802.145996,0.000000
7822.151367,0.000001
7842.157227,0.000000
7862.162598,0.000001
7882.167969,0.000000
7902.173340,0.000001
7922.178711,0.000000
7962.189453,0.000000
7982.194824,0.000001
8042.210938,0.000001
8062.216309,0.000001
8082.221680,0.000000
8202.253906,0.000001
8222.259766,0.000003
8242.264648,0.000002
8282.276367,0.000000
8302.281250,0.000001
8342.291992,0.000000
8442.319336,0.000002
8462.324219,0.000004
8522.340820,0.000000
8602.362305,0.000010
8622.368164,0.000039
8642.373047,0.000010
8662.378906,0.000010
8682.383789,0.000027
8702.389648,0.000006
8722.394531,0.000014
8742.400391,0.000014
8762.405273,0.000012
8782.411133,0.000030
8842.427734,0.000021
8882.438477,0.000006
8902.443359,0.000022
8922.449219,0.000006
8942.454102,0.000005
8962.459961,0.000015
8982.464844,0.000004
9002.470703,0.000008
9022.476562,0.000009
9042.481445,0.000002
9062.487305,0.000011
9082.492188,0.000005
9102.498047,0.000007
9122.502930,0.000014
9142.508789,0.000001
9162.513672,0.000007
9182.519531,0.000014
9222.530273,0.000006
9242.535156,0.000009
9262.541016,0.000001
9282.546875,0.000006
9302.551758,0.000008
9342.562500,0.000007
9362.568359,0.000008
9382.573242,0.000002
9402.579102,0.000007
9442.589844,0.000002
9462.594727,0.000006
9502.606445,0.000006
9522.611328,0.000007
9562.622070,0.000006
9582.627930,0.000008
9622.638672,0.000004
9642.643555,0.000006
9662.649414,0.000000
9682.655273,0.000006
9702.660156,0.000007
9722.666016,0.000002
9742.670898,0.000006
9762.676758,0.000005
9782.681641,0.000003
9802.687500,0.000007
9842.698242,0.000008
9862.703125,0.000007
9902.714844,0.000006
9922.719727,0.000007
9962.730469,0.000005
9982.736328,0.000006
10002.741211,0.000002
10022.747070,0.000006
10042.751953,0.000005
10062.757812,0.000002
10082.762695,0.000005
10102.768555,0.000004
10122.774414,0.000002
10142.779297,0.000006
10182.790039,0.000005
10202.795898,0.000006
10242.806641,0.000006
10262.811523,0.000006
10282.817383,0.000002
10302.823242,0.000008
10322.828125,0.000009
10342.833984,0.000003
10362.838867,0.000009
10382.843750,0.000010
10402.849609,0.000006
10422.855469,0.000010
10442.861328,0.000009
10462.866211,0.000008
10482.872070,0.000013
10502.876953,0.000010
10522.881836,0.000017
10542.887695,0.000019
10562.892578,0.000021
10582.899414,0.000034
10602.904297,0.000042
10622.910156,0.000050
10642.915039,0.000068
10662.919922,0.000079
10682.925781,0.000090
10702.930664,0.000109
10722.936523,0.000114
10742.942383,0.000132
10762.948242,0.000161
10782.953125,0.000169
10802.958008,0.000198
10822.963867,0.000232
10842.968750,0.000257
10862.974609,0.000276
10882.980469,0.000305
10902.986328,0.000311
10922.991211,0.000324
10942.996094,0.000316
10963.001953,0.000307
10983.006836,0.000315
11003.012695,0.000350
11004.012695,0.000000
11005.012695,0.000000
