# WAVELENGTH_UNIT	AA
# COMPNAME       	HST_NIC3_F110W
# NAME           	HST_NIC3_F110W
# DETECTOR       	photon
#
## WAVELENGTH	None	AA
## THROUGHPUT	None	filter throughput definition
#
WAVELENGTH,THROUGHPUT
5994.999023,0.000000
5995.000000,0.000005
6000.000000,-0.000006
6005.000000,0.000005
6010.000000,-0.000011
6015.000000,-0.000021
6020.000000,-0.000016
6025.000000,-0.000010
6030.000000,-0.000003
6035.000000,-0.000023
6040.000000,-0.000019
6045.000000,-0.000018
6050.000000,-0.000021
6055.000000,-0.000007
6060.000000,-0.000010
6065.000000,-0.000010
6070.000000,-0.000014
6075.000000,-0.000015
6080.000000,-0.000018
6085.000000,-0.000007
6090.000000,-0.000009
6095.000000,-0.000025
6100.000000,-0.000018
6105.000000,-0.000012
6110.000000,-0.000020
6115.000000,-0.000013
6120.000000,-0.000004
6125.000000,-0.000011
6130.000000,-0.000006
6135.000000,-0.000005
6140.000000,-0.000002
6145.000000,-0.000011
6150.000000,-0.000011
6155.000000,-0.000005
6160.000000,-0.000006
6165.000000,-0.000019
6170.000000,-0.000014
6175.000000,-0.000019
6180.000000,-0.000001
6185.000000,-0.000005
6190.000000,-0.000009
6195.000000,-0.000020
6200.000000,0.000004
6205.000000,0.000004
6210.000000,-0.000000
6215.000000,-0.000016
6220.000000,0.000004
6225.000000,-0.000016
6230.000000,0.000001
6235.000000,-0.000012
6240.000000,0.000004
6245.000000,-0.000012
6250.000000,-0.000011
6255.000000,-0.000011
6260.000000,-0.000023
6265.000000,-0.000020
6270.000000,-0.000006
6275.000000,-0.000012
6280.000000,0.000003
6285.000000,-0.000011
6290.000000,-0.000020
6295.000000,-0.000007
6300.000000,-0.000017
6305.000000,-0.000019
6310.000000,-0.000006
6315.000000,-0.000012
6320.000000,-0.000009
6325.000000,-0.000016
6330.000000,-0.000025
6335.000000,-0.000020
6340.000000,-0.000026
6345.000000,-0.000000
6350.000000,-0.000028
6355.000000,-0.000012
6360.000000,0.000001
6365.000000,0.000005
6370.000000,-0.000033
6375.000000,-0.000003
6380.000000,-0.000007
6385.000000,-0.000027
6390.000000,0.000007
6395.000000,0.000002
6400.000000,-0.000008
6405.000000,-0.000038
6410.000000,-0.000029
6415.000000,0.000003
6420.000000,0.000001
6425.000000,-0.000003
6430.000000,-0.000000
6435.000000,0.000003
6440.000000,-0.000018
6445.000000,-0.000006
6450.000000,-0.000021
6455.000000,-0.000008
6460.000000,-0.000015
6465.000000,-0.000003
6470.000000,0.000005
6475.000000,-0.000008
6480.000000,-0.000029
6485.000000,-0.000015
6490.000000,-0.000002
6495.000000,0.000006
6500.000000,-0.000025
6505.000000,-0.000022
6510.000000,-0.000009
6515.000000,-0.000024
6520.000000,-0.000008
6525.000000,0.000017
6530.000000,-0.000004
6535.000000,-0.000004
6540.000000,-0.000004
6545.000000,-0.000001
6550.000000,0.000008
6555.000000,-0.000019
6560.000000,-0.000000
6565.000000,-0.000030
6570.000000,-0.000024
6575.000000,-0.000012
6580.000000,-0.000000
6585.000000,-0.000021
6590.000000,-0.000016
6595.000000,-0.000000
6600.000000,0.000005
6605.000000,-0.000007
6610.000000,-0.000008
6615.000000,-0.000003
6620.000000,-0.000003
6625.000000,0.000006
6630.000000,-0.000009
6635.000000,0.000009
6640.000000,-0.000011
6645.000000,-0.000009
6650.000000,0.000002
6655.000000,-0.000006
6660.000000,-0.000008
6665.000000,-0.000015
6670.000000,-0.000010
6675.000000,-0.000032
6680.000000,-0.000008
6685.000000,-0.000002
6690.000000,-0.000013
6695.000000,0.000006
6700.000000,-0.000010
6705.000000,0.000003
6710.000000,0.000008
6715.000000,-0.000000
6720.000000,-0.000024
6725.000000,-0.000001
6730.000000,-0.000018
6735.000000,0.000005
6740.000000,-0.000017
6745.000000,-0.000006
6750.000000,0.000008
6755.000000,-0.000018
6760.000000,-0.000004
6765.000000,0.000014
6770.000000,-0.000024
6775.000000,-0.000015
6780.000000,-0.000007
6785.000000,-0.000004
6790.000000,-0.000017
6795.000000,-0.000008
6800.000000,-0.000019
6805.000000,-0.000024
6810.000000,-0.000006
6815.000000,-0.000010
6820.000000,-0.000000
6825.000000,-0.000016
6830.000000,-0.000009
6835.000000,-0.000009
6840.000000,-0.000012
6845.000000,-0.000001
6850.000000,0.000002
6855.000000,-0.000011
6860.000000,-0.000023
6865.000000,-0.000004
6870.000000,0.000004
6875.000000,-0.000008
6880.000000,-0.000024
6885.000000,-0.000016
6890.000000,-0.000009
6895.000000,-0.000011
6900.000000,-0.000024
6905.000000,-0.000002
6910.000000,-0.000013
6915.000000,-0.000020
6920.000000,-0.000012
6925.000000,-0.000011
6930.000000,-0.000010
6935.000000,0.000001
6940.000000,-0.000013
6945.000000,-0.000004
6950.000000,0.000000
6955.000000,-0.000017
6960.000000,-0.000019
6965.000000,-0.000004
6970.000000,-0.000014
6975.000000,-0.000003
6980.000000,-0.000008
6985.000000,-0.000024
6990.000000,-0.000019
6995.000000,-0.000009
7000.000000,-0.000020
7005.000000,0.000003
7010.000000,-0.000008
7015.000000,-0.000006
7020.000000,0.000001
7025.000000,-0.000008
7030.000000,-0.000003
7035.000000,-0.000003
7040.000000,0.000005
7045.000000,-0.000036
7050.000000,-0.000010
7055.000000,-0.000013
7060.000000,-0.000030
7065.000000,-0.000024
7070.000000,-0.000004
7075.000000,-0.000012
7080.000000,-0.000004
7085.000000,-0.000014
7090.000000,-0.000009
7095.000000,-0.000013
7100.000000,-0.000009
7105.000000,-0.000014
7110.000000,-0.000008
7115.000000,-0.000020
7120.000000,-0.000015
7125.000000,-0.000017
7130.000000,-0.000015
7135.000000,-0.000006
7140.000000,0.000008
7145.000000,0.000000
7150.000000,0.000008
7155.000000,-0.000003
7160.000000,-0.000011
7165.000000,0.000006
7170.000000,-0.000016
7175.000000,-0.000008
7180.000000,0.000010
7185.000000,-0.000014
7190.000000,-0.000019
7195.000000,-0.000009
7200.000000,0.000001
7205.000000,-0.000011
7210.000000,-0.000003
7215.000000,0.000004
7220.000000,-0.000012
7225.000000,0.000000
7230.000000,-0.000001
7235.000000,-0.000006
7240.000000,0.000005
7245.000000,-0.000021
7250.000000,-0.000010
7255.000000,-0.000006
7260.000000,-0.000012
7265.000000,-0.000019
7270.000000,-0.000008
7275.000000,-0.000013
7280.000000,-0.000012
7285.000000,-0.000026
7290.000000,-0.000020
7295.000000,-0.000015
7300.000000,-0.000006
7305.000000,-0.000017
7310.000000,-0.000011
7315.000000,-0.000014
7320.000000,-0.000002
7325.000000,0.000002
7330.000000,0.000004
7335.000000,-0.000026
7340.000000,-0.000014
7345.000000,-0.000006
7350.000000,0.000008
7355.000000,0.000006
7360.000000,0.000003
7365.000000,-0.000021
7370.000000,-0.000003
7375.000000,-0.000017
7380.000000,-0.000016
7385.000000,-0.000007
7390.000000,-0.000007
7395.000000,-0.000012
7400.000000,-0.000006
7405.000000,-0.000011
7410.000000,-0.000009
7415.000000,-0.000023
7420.000000,0.000003
7425.000000,-0.000013
7430.000000,-0.000008
7435.000000,0.000000
7440.000000,0.000004
7445.000000,-0.000007
7450.000000,-0.000008
7455.000000,0.000004
7460.000000,0.000014
7465.000000,-0.000019
7470.000000,-0.000006
7475.000000,-0.000010
7480.000000,-0.000017
7485.000000,-0.000009
7490.000000,0.000008
7495.000000,-0.000023
7500.000000,-0.000008
7505.000000,-0.000001
7510.000000,-0.000018
7515.000000,-0.000003
7520.000000,-0.000041
7525.000000,-0.000018
7530.000000,0.000004
7535.000000,-0.000014
7540.000000,-0.000009
7545.000000,0.000001
7550.000000,0.000007
7555.000000,0.000005
7560.000000,0.000023
7565.000000,0.000000
7570.000000,0.000036
7575.000000,0.000021
7580.000000,0.000039
7585.000000,0.000065
7590.000000,0.000071
7595.000000,0.000126
7600.000000,0.000167
7605.000000,0.000236
7610.000000,0.000296
7615.000000,0.000399
7620.000000,0.000519
7625.000000,0.000641
7630.000000,0.000827
7635.000000,0.000992
7640.000000,0.001182
7645.000000,0.001381
7650.000000,0.001585
7655.000000,0.001771
7660.000000,0.001951
7665.000000,0.002115
7670.000000,0.002302
7675.000000,0.002431
7680.000000,0.002567
7685.000000,0.002686
7690.000000,0.002777
7695.000000,0.002895
7700.000000,0.002935
7705.000000,0.003037
7710.000000,0.003097
7715.000000,0.003174
7720.000000,0.003289
7725.000000,0.003397
7730.000000,0.003516
7735.000000,0.003666
7740.000000,0.003848
7745.000000,0.004067
7750.000000,0.004312
7755.000000,0.004547
7760.000000,0.004853
7765.000000,0.005184
7770.000000,0.005577
7775.000000,0.005977
7780.000000,0.006441
7785.000000,0.006973
7790.000000,0.007576
7795.000000,0.008287
7800.000000,0.009080
7805.000000,0.009959
7810.000000,0.011032
7815.000000,0.012258
7820.000000,0.013628
7825.000000,0.015246
7830.000000,0.017083
7835.000000,0.019134
7840.000000,0.021563
7845.000000,0.024172
7850.000000,0.027240
7855.000000,0.030722
7860.000000,0.034424
7865.000000,0.038691
7870.000000,0.043259
7875.000000,0.048035
7880.000000,0.053238
7885.000000,0.058470
7890.000000,0.063840
7895.000000,0.069336
7900.000000,0.074650
7905.000000,0.080053
7910.000000,0.085247
7915.000000,0.090339
7920.000000,0.095649
7925.000000,0.100615
7930.000000,0.105750
7935.000000,0.111087
7940.000000,0.116703
7945.000000,0.122590
7950.000000,0.128994
7955.000000,0.136044
7960.000000,0.144119
7965.000000,0.153004
7970.000000,0.163111
7975.000000,0.174724
7980.000000,0.187576
7985.000000,0.202303
7990.000000,0.218975
7995.000000,0.237544
8000.000000,0.259053
8005.000000,0.281872
8010.000000,0.307871
8015.000000,0.336029
8020.000000,0.366126
8025.000000,0.398087
8030.000000,0.431815
8035.000000,0.466508
8040.000000,0.502940
8045.000000,0.538112
8050.000000,0.572758
8055.000000,0.607589
8060.000000,0.639354
8065.000000,0.670056
8070.000000,0.698595
8075.000000,0.724296
8080.000000,0.747557
8085.000000,0.769640
8090.000000,0.787844
8095.000000,0.803635
8100.000000,0.816723
8105.000000,0.826111
8110.000000,0.832664
8115.000000,0.836558
8120.000000,0.839243
8125.000000,0.839698
8130.000000,0.839738
8135.000000,0.839345
8140.000000,0.838581
8145.000000,0.838611
8150.000000,0.839379
8155.000000,0.839391
8160.000000,0.839057
8165.000000,0.838681
8170.000000,0.837291
8175.000000,0.834426
8180.000000,0.830321
8185.000000,0.824419
8190.000000,0.816483
8195.000000,0.806693
8200.000000,0.796939
8205.000000,0.786093
8210.000000,0.775303
8215.000000,0.764063
8220.000000,0.754602
8225.000000,0.745594
8230.000000,0.737910
8235.000000,0.731571
8240.000000,0.727350
8245.000000,0.724021
8250.000000,0.721870
8255.000000,0.720874
8260.000000,0.720664
8265.000000,0.719890
8270.000000,0.719536
8275.000000,0.718461
8280.000000,0.715877
8285.000000,0.712533
8290.000000,0.709853
8295.000000,0.705912
8300.000000,0.702743
8305.000000,0.700135
8310.000000,0.698709
8315.000000,0.699382
8325.000000,0.707486
8330.000000,0.713764
8335.000000,0.722070
8340.000000,0.729949
8345.000000,0.737794
8350.000000,0.743928
8355.000000,0.748052
8360.000000,0.748222
8365.000000,0.745970
8370.000000,0.740476
8375.000000,0.733490
8380.000000,0.724985
8385.000000,0.717356
8390.000000,0.709434
8395.000000,0.704811
8400.000000,0.701793
8405.000000,0.700558
8410.000000,0.700477
8415.000000,0.701405
8420.000000,0.700638
8425.000000,0.697616
8430.000000,0.690809
8435.000000,0.679340
8440.000000,0.662946
8445.000000,0.643350
8450.000000,0.620745
8455.000000,0.596976
8460.000000,0.573558
8465.000000,0.553194
8470.000000,0.536660
8475.000000,0.526119
8480.000000,0.520305
8485.000000,0.522361
8490.000000,0.531416
8495.000000,0.547644
8500.000000,0.570616
8505.000000,0.598423
8510.000000,0.630274
8515.000000,0.662984
8520.000000,0.693793
8525.000000,0.719144
8530.000000,0.732991
8535.000000,0.737371
8540.000000,0.729013
8545.000000,0.709901
8550.000000,0.681988
8555.000000,0.650101
8560.000000,0.617052
8565.000000,0.586321
8570.000000,0.559910
8575.000000,0.538800
8580.000000,0.523403
8585.000000,0.516556
8590.000000,0.514873
8595.000000,0.519651
8600.000000,0.530334
8605.000000,0.546887
8610.000000,0.568139
8615.000000,0.592943
8620.000000,0.619257
8625.000000,0.646452
8630.000000,0.674631
8635.000000,0.699472
8640.000000,0.721132
8645.000000,0.741474
8650.000000,0.754781
8655.000000,0.767001
8660.000000,0.774854
8665.000000,0.779425
8670.000000,0.784673
8675.000000,0.789351
8680.000000,0.795245
8685.000000,0.801511
8690.000000,0.808103
8695.000000,0.816872
8700.000000,0.822359
8705.000000,0.827833
8710.000000,0.828133
8715.000000,0.821916
8720.000000,0.813015
8725.000000,0.798383
8730.000000,0.774408
8735.000000,0.750262
8740.000000,0.719931
8745.000000,0.689759
8750.000000,0.654744
8755.000000,0.627886
8760.000000,0.603941
8765.000000,0.580766
8770.000000,0.560488
8775.000000,0.543444
8780.000000,0.530722
8785.000000,0.517783
8790.000000,0.508043
8795.000000,0.497889
8800.000000,0.485882
8805.000000,0.475316
8810.000000,0.463648
8815.000000,0.450692
8820.000000,0.437270
8825.000000,0.423328
8830.000000,0.407213
8835.000000,0.391486
8840.000000,0.379260
8845.000000,0.367728
8850.000000,0.358657
8855.000000,0.352194
8860.000000,0.347470
8865.000000,0.346282
8870.000000,0.348446
8875.000000,0.354558
8880.000000,0.363604
8885.000000,0.375203
8890.000000,0.390066
8895.000000,0.407776
8900.000000,0.425282
8905.000000,0.441459
8910.000000,0.456494
8915.000000,0.468433
8920.000000,0.476181
8925.000000,0.478197
8930.000000,0.474916
8935.000000,0.467106
8940.000000,0.455281
8945.000000,0.441151
8950.000000,0.425512
8955.000000,0.409707
8960.000000,0.395806
8965.000000,0.385105
8970.000000,0.376696
8975.000000,0.372008
8980.000000,0.371432
8985.000000,0.374893
8990.000000,0.382760
8995.000000,0.395842
9000.000000,0.411293
9005.000000,0.432691
9010.000000,0.458413
9015.000000,0.488527
9020.000000,0.522520
9025.000000,0.557066
9030.000000,0.592868
9035.000000,0.628837
9040.000000,0.661165
9045.000000,0.693517
9050.000000,0.721065
9055.000000,0.741678
9060.000000,0.757164
9065.000000,0.768244
9070.000000,0.774036
9075.000000,0.777819
9080.000000,0.779087
9085.000000,0.779149
9090.000000,0.779550
9095.000000,0.780162
9100.000000,0.782113
9105.000000,0.785421
9110.000000,0.789270
9115.000000,0.794527
9120.000000,0.799914
9125.000000,0.805739
9130.000000,0.810352
9135.000000,0.815021
9140.000000,0.819016
9145.000000,0.822290
9150.000000,0.823940
9155.000000,0.825030
9160.000000,0.824946
9165.000000,0.824687
9170.000000,0.824073
9175.000000,0.823553
9180.000000,0.822924
9185.000000,0.822187
9190.000000,0.822147
9195.000000,0.821011
9200.000000,0.820233
9205.000000,0.818657
9210.000000,0.815631
9215.000000,0.811779
9220.000000,0.806672
9225.000000,0.800318
9230.000000,0.792470
9235.000000,0.782938
9240.000000,0.772334
9245.000000,0.760805
9250.000000,0.750529
9255.000000,0.739959
9260.000000,0.729724
9265.000000,0.721227
9270.000000,0.712943
9275.000000,0.706866
9280.000000,0.702687
9285.000000,0.700568
9290.000000,0.700406
9295.000000,0.701823
9300.000000,0.704595
9305.000000,0.709365
9310.000000,0.715171
9315.000000,0.721703
9320.000000,0.728795
9325.000000,0.735709
9330.000000,0.742795
9335.000000,0.750268
9340.000000,0.756385
9345.000000,0.762596
9350.000000,0.766941
9355.000000,0.771126
9360.000000,0.774471
9365.000000,0.777586
9370.000000,0.780001
9375.000000,0.781806
9380.000000,0.783404
9385.000000,0.784522
9390.000000,0.786266
9395.000000,0.787233
9400.000000,0.788087
9405.000000,0.788796
9410.000000,0.789345
9415.000000,0.789782
9420.000000,0.789683
9425.000000,0.788902
9430.000000,0.788810
9435.000000,0.787666
9440.000000,0.786890
9445.000000,0.786306
9450.000000,0.785761
9455.000000,0.785719
9460.000000,0.786229
9465.000000,0.786740
9470.000000,0.788149
9475.000000,0.789324
9480.000000,0.790737
9485.000000,0.792721
9490.000000,0.794234
9495.000000,0.795630
9500.000000,0.796538
9505.000000,0.796363
9510.000000,0.795452
9515.000000,0.793559
9520.000000,0.791436
9525.000000,0.787943
9530.000000,0.783812
9535.000000,0.779881
9540.000000,0.775899
9545.000000,0.771862
9550.000000,0.768730
9555.000000,0.766300
9560.000000,0.764936
9565.000000,0.764972
9570.000000,0.765931
9575.000000,0.768224
9580.000000,0.771819
9585.000000,0.776744
9590.000000,0.782470
9595.000000,0.788769
9600.000000,0.794930
9605.000000,0.800948
9610.000000,0.806834
9615.000000,0.812077
9620.000000,0.816608
9625.000000,0.820538
9630.000000,0.822750
9635.000000,0.823935
9640.000000,0.824787
9645.000000,0.824605
9650.000000,0.824282
9655.000000,0.823791
9660.000000,0.823442
9665.000000,0.823024
9670.000000,0.823297
9675.000000,0.823780
9680.000000,0.825399
9685.000000,0.826983
9690.000000,0.828715
9695.000000,0.830809
9700.000000,0.832795
9705.000000,0.834372
9710.000000,0.835989
9715.000000,0.836658
9720.000000,0.836561
9725.000000,0.836324
9730.000000,0.835383
9735.000000,0.833867
9740.000000,0.832221
9745.000000,0.830558
9750.000000,0.828989
9755.000000,0.828176
9760.000000,0.828155
9765.000000,0.828903
9770.000000,0.830418
9775.000000,0.832806
9780.000000,0.836165
9785.000000,0.839780
9790.000000,0.844076
9795.000000,0.848109
9800.000000,0.852123
9805.000000,0.855748
9810.000000,0.858349
9815.000000,0.859519
9820.000000,0.860020
9825.000000,0.858187
9830.000000,0.855914
9835.000000,0.852221
9840.000000,0.847297
9845.000000,0.841741
9850.000000,0.836348
9855.000000,0.831102
9860.000000,0.826573
9865.000000,0.821975
9870.000000,0.819146
9875.000000,0.817831
9880.000000,0.817164
9885.000000,0.818284
9890.000000,0.820732
9895.000000,0.824087
9900.000000,0.828540
9905.000000,0.833542
9910.000000,0.838816
9915.000000,0.844098
9920.000000,0.848909
9925.000000,0.852981
9930.000000,0.856489
9935.000000,0.859035
9940.000000,0.859882
9945.000000,0.860184
9950.000000,0.859309
9955.000000,0.857840
9960.000000,0.856134
9965.000000,0.853951
9970.000000,0.851469
9975.000000,0.849997
9980.000000,0.848570
9985.000000,0.847671
9990.000000,0.847684
9995.000000,0.848080
10000.000000,0.849616
10005.000000,0.851322
10010.000000,0.853089
10015.000000,0.855184
10020.000000,0.857263
10025.000000,0.858964
10030.000000,0.860722
10035.000000,0.861124
10040.000000,0.861742
10045.000000,0.861448
10050.000000,0.860537
10055.000000,0.859412
10060.000000,0.857711
10065.000000,0.855696
10070.000000,0.854276
10075.000000,0.852957
10080.000000,0.851861
10085.000000,0.851287
10090.000000,0.851214
10095.000000,0.851065
10100.000000,0.851819
10105.000000,0.852290
10110.000000,0.853158
10115.000000,0.853627
10120.000000,0.853336
10125.000000,0.852536
10130.000000,0.850687
10135.000000,0.847669
10140.000000,0.843633
10145.000000,0.838838
10150.000000,0.832186
10155.000000,0.824893
10160.000000,0.816527
10165.000000,0.808085
10170.000000,0.799927
10175.000000,0.791844
10180.000000,0.783712
10185.000000,0.776552
10190.000000,0.769599
10195.000000,0.764602
10200.000000,0.760812
10205.000000,0.757833
10210.000000,0.756251
10215.000000,0.755810
10220.000000,0.756346
10225.000000,0.757707
10230.000000,0.759664
10235.000000,0.761746
10250.000000,0.768725
10255.000000,0.770680
10260.000000,0.771484
10265.000000,0.772157
10270.000000,0.771919
10275.000000,0.771298
10280.000000,0.769884
10285.000000,0.768598
10290.000000,0.766872
10295.000000,0.765186
10300.000000,0.763576
10305.000000,0.762520
10310.000000,0.761656
10315.000000,0.761180
10320.000000,0.761357
10325.000000,0.761923
10330.000000,0.763212
10335.000000,0.764554
10340.000000,0.767056
10345.000000,0.768752
10350.000000,0.771362
10355.000000,0.773972
10360.000000,0.776040
10365.000000,0.778891
10370.000000,0.780918
10375.000000,0.783158
10380.000000,0.785939
10385.000000,0.787962
10390.000000,0.790835
10395.000000,0.793517
10400.000000,0.796557
10405.000000,0.799892
10410.000000,0.804512
10415.000000,0.808752
10420.000000,0.813736
10425.000000,0.819003
10430.000000,0.823886
10435.000000,0.828897
10440.000000,0.833973
10445.000000,0.837726
10450.000000,0.840327
10455.000000,0.841076
10460.000000,0.839963
10465.000000,0.836791
10470.000000,0.831036
10475.000000,0.822440
10480.000000,0.811567
10485.000000,0.799228
10490.000000,0.784317
10495.000000,0.769106
10500.000000,0.752047
10505.000000,0.733728
10510.000000,0.715336
10515.000000,0.699610
10520.000000,0.684159
10525.000000,0.670005
10530.000000,0.656745
10535.000000,0.645347
10540.000000,0.635995
10545.000000,0.629200
10550.000000,0.624728
10555.000000,0.621877
10560.000000,0.621137
10565.000000,0.622792
10570.000000,0.625928
10575.000000,0.630976
10580.000000,0.637562
10585.000000,0.645596
10590.000000,0.654682
10595.000000,0.664850
10600.000000,0.676474
10605.000000,0.687756
10610.000000,0.698824
10615.000000,0.710108
10620.000000,0.720791
10625.000000,0.730461
10630.000000,0.740500
10635.000000,0.749637
10640.000000,0.756465
10645.000000,0.762277
10650.000000,0.766821
10655.000000,0.769836
10660.000000,0.771539
10665.000000,0.771496
10670.000000,0.769700
10675.000000,0.766690
10680.000000,0.761769
10685.000000,0.755095
10690.000000,0.747029
10695.000000,0.736628
10700.000000,0.724946
10705.000000,0.712449
10710.000000,0.698887
10715.000000,0.684781
10720.000000,0.668478
10725.000000,0.651945
10730.000000,0.635512
10735.000000,0.619566
10740.000000,0.604284
10745.000000,0.589233
10750.000000,0.575381
10755.000000,0.561933
10760.000000,0.549565
10765.000000,0.540086
10770.000000,0.531962
10775.000000,0.525110
10780.000000,0.520248
10785.000000,0.517206
10790.000000,0.516173
10795.000000,0.517131
10800.000000,0.519981
10805.000000,0.524563
10810.000000,0.531323
10815.000000,0.540064
10820.000000,0.550759
10825.000000,0.563416
10830.000000,0.577201
10835.000000,0.592021
10840.000000,0.608992
10845.000000,0.626827
10850.000000,0.645905
10855.000000,0.666083
10860.000000,0.685418
10865.000000,0.704581
10870.000000,0.723193
10875.000000,0.741884
10880.000000,0.759224
10885.000000,0.776017
10890.000000,0.790828
10895.000000,0.803753
10900.000000,0.815086
10905.000000,0.824899
10910.000000,0.833387
10915.000000,0.840497
10920.000000,0.845665
10925.000000,0.849771
10930.000000,0.851781
10935.000000,0.852779
10940.000000,0.852746
10945.000000,0.850985
10950.000000,0.847524
10955.000000,0.843427
10960.000000,0.837439
10965.000000,0.830863
10970.000000,0.822847
10975.000000,0.813032
10980.000000,0.802351
10985.000000,0.791125
10990.000000,0.780041
10995.000000,0.767945
11000.000000,0.756077
11005.000000,0.744378
11010.000000,0.732790
11015.000000,0.722136
11020.000000,0.712973
11025.000000,0.705239
11030.000000,0.698547
11035.000000,0.693300
11040.000000,0.689578
11045.000000,0.688104
11050.000000,0.687945
11055.000000,0.690101
11060.000000,0.694282
11065.000000,0.699863
11070.000000,0.707518
11075.000000,0.716614
11080.000000,0.727144
11085.000000,0.738557
11090.000000,0.750721
11095.000000,0.763054
11100.000000,0.776524
11105.000000,0.790133
11110.000000,0.802392
11115.000000,0.813154
11120.000000,0.823209
11125.000000,0.831558
11130.000000,0.838088
11135.000000,0.843150
11140.000000,0.846338
11145.000000,0.847639
11150.000000,0.847107
11155.000000,0.845384
11160.000000,0.842519
11165.000000,0.839435
11170.000000,0.834958
11175.000000,0.830902
11180.000000,0.827112
11185.000000,0.823547
11190.000000,0.820878
11195.000000,0.818764
11200.000000,0.817316
11205.000000,0.817056
11210.000000,0.817378
11215.000000,0.818335
11220.000000,0.820118
11225.000000,0.822128
11230.000000,0.824692
11235.000000,0.827308
11240.000000,0.829462
11245.000000,0.831302
11250.000000,0.832660
11255.000000,0.833397
11260.000000,0.833478
11265.000000,0.832430
11270.000000,0.830810
11275.000000,0.828719
11280.000000,0.825803
11285.000000,0.822442
11290.000000,0.818618
11295.000000,0.814451
11300.000000,0.810549
11305.000000,0.806813
11310.000000,0.803421
11315.000000,0.800822
11320.000000,0.798493
11325.000000,0.797283
11330.000000,0.796395
11335.000000,0.796457
11340.000000,0.797501
11345.000000,0.798858
11350.000000,0.800913
11355.000000,0.803207
11360.000000,0.806128
11365.000000,0.808534
11370.000000,0.811329
11375.000000,0.813154
11380.000000,0.814655
11385.000000,0.815239
11390.000000,0.815288
11395.000000,0.814268
11400.000000,0.812347
11405.000000,0.809153
11410.000000,0.805458
11415.000000,0.800824
11420.000000,0.795338
11425.000000,0.789027
11430.000000,0.783514
11435.000000,0.777697
11440.000000,0.772086
11445.000000,0.766868
11450.000000,0.762160
11455.000000,0.758116
11460.000000,0.755257
11465.000000,0.753270
11470.000000,0.752734
11475.000000,0.753399
11480.000000,0.755061
11485.000000,0.758244
11490.000000,0.762576
11495.000000,0.767753
11500.000000,0.773723
11505.000000,0.780788
11510.000000,0.788138
11515.000000,0.796804
11520.000000,0.805058
11525.000000,0.813183
11530.000000,0.821016
11535.000000,0.828435
11540.000000,0.835197
11545.000000,0.841497
11550.000000,0.846914
11555.000000,0.850795
11560.000000,0.853962
11565.000000,0.855831
11570.000000,0.857190
11575.000000,0.857323
11580.000000,0.856831
11585.000000,0.855527
11590.000000,0.853815
11595.000000,0.852101
11600.000000,0.850058
11605.000000,0.848011
11610.000000,0.846066
11615.000000,0.844670
11620.000000,0.843443
11625.000000,0.842549
11630.000000,0.842351
11635.000000,0.842324
11640.000000,0.842867
11645.000000,0.843550
11650.000000,0.844448
11655.000000,0.845720
11660.000000,0.846073
11665.000000,0.847489
11670.000000,0.848083
11675.000000,0.848495
11680.000000,0.848436
11685.000000,0.848382
11690.000000,0.847155
11695.000000,0.846164
11700.000000,0.844464
11705.000000,0.842290
11710.000000,0.840042
11715.000000,0.837423
11720.000000,0.835169
11725.000000,0.832598
11730.000000,0.830216
11735.000000,0.828134
11740.000000,0.826129
11745.000000,0.824797
11750.000000,0.824067
11755.000000,0.823900
11760.000000,0.823953
11765.000000,0.824685
11770.000000,0.826019
11775.000000,0.827572
11780.000000,0.829624
11785.000000,0.831908
11790.000000,0.834159
11795.000000,0.836481
11800.000000,0.838554
11805.000000,0.840247
11810.000000,0.841104
11815.000000,0.841167
11820.000000,0.840831
11825.000000,0.839292
11830.000000,0.836733
11835.000000,0.833387
11840.000000,0.828869
11845.000000,0.823857
11850.000000,0.817976
11855.000000,0.811349
11860.000000,0.803824
11865.000000,0.796171
11870.000000,0.788936
11875.000000,0.781649
11880.000000,0.774957
11885.000000,0.768445
11890.000000,0.762490
11895.000000,0.757244
11900.000000,0.753121
11905.000000,0.750336
11910.000000,0.748328
11915.000000,0.747621
11920.000000,0.748251
11925.000000,0.750144
11930.000000,0.753608
11935.000000,0.757845
11940.000000,0.763085
11945.000000,0.769513
11950.000000,0.776951
11955.000000,0.785477
11960.000000,0.794686
11965.000000,0.804567
11970.000000,0.813775
11975.000000,0.823289
11980.000000,0.832865
11985.000000,0.841979
11990.000000,0.851538
11995.000000,0.859449
12000.000000,0.867522
12005.000000,0.874032
12010.000000,0.879168
12015.000000,0.883898
12020.000000,0.886945
12025.000000,0.889397
12030.000000,0.890439
12035.000000,0.890621
12040.000000,0.890367
12045.000000,0.889297
12050.000000,0.887875
12055.000000,0.885943
12060.000000,0.883838
12065.000000,0.882016
12070.000000,0.880268
12075.000000,0.878207
12080.000000,0.876777
12085.000000,0.875661
12090.000000,0.874485
12095.000000,0.874486
12100.000000,0.873883
12105.000000,0.874273
12110.000000,0.876124
12115.000000,0.875269
12120.000000,0.875722
12125.000000,0.876910
12130.000000,0.877515
12135.000000,0.878366
12140.000000,0.878730
12145.000000,0.879182
12150.000000,0.879335
12155.000000,0.878649
12160.000000,0.878643
12165.000000,0.876957
12170.000000,0.876429
12175.000000,0.875381
12180.000000,0.873636
12185.000000,0.872096
12190.000000,0.870311
12195.000000,0.868815
12200.000000,0.867127
12205.000000,0.865645
12210.000000,0.864321
12215.000000,0.863102
12220.000000,0.862405
12225.000000,0.861852
12230.000000,0.861728
12235.000000,0.861324
12240.000000,0.861464
12245.000000,0.861987
12250.000000,0.862521
12255.000000,0.862984
12260.000000,0.863435
12265.000000,0.863737
12270.000000,0.863744
12275.000000,0.863442
12280.000000,0.862395
12285.000000,0.861400
12290.000000,0.859457
12295.000000,0.857029
12300.000000,0.853750
12305.000000,0.849863
12310.000000,0.844904
12315.000000,0.839664
12320.000000,0.833949
12325.000000,0.827742
12330.000000,0.821082
12335.000000,0.814231
12340.000000,0.806471
12345.000000,0.799649
12350.000000,0.792702
12355.000000,0.786035
12360.000000,0.779635
12365.000000,0.773728
12370.000000,0.767748
12375.000000,0.763201
12380.000000,0.759150
12385.000000,0.755979
12390.000000,0.753672
12395.000000,0.752003
12400.000000,0.751302
12405.000000,0.751532
12410.000000,0.752720
12415.000000,0.754512
12420.000000,0.757569
12425.000000,0.760893
12430.000000,0.765182
12435.000000,0.770121
12440.000000,0.775479
12445.000000,0.781363
12450.000000,0.787520
12455.000000,0.793869
12460.000000,0.800813
12465.000000,0.807488
12470.000000,0.814103
12475.000000,0.820427
12480.000000,0.826513
12485.000000,0.832607
12490.000000,0.838004
12495.000000,0.843334
12500.000000,0.847835
12505.000000,0.851969
12510.000000,0.855269
12515.000000,0.858171
12520.000000,0.861291
12525.000000,0.863719
12530.000000,0.865675
12535.000000,0.867325
12540.000000,0.868806
12545.000000,0.869702
12550.000000,0.870793
12555.000000,0.871567
12560.000000,0.872672
12565.000000,0.873569
12570.000000,0.874355
12575.000000,0.875115
12580.000000,0.875850
12585.000000,0.876697
12590.000000,0.877942
12595.000000,0.878548
12600.000000,0.879378
12605.000000,0.880034
12610.000000,0.880825
12615.000000,0.881536
12620.000000,0.882148
12625.000000,0.882559
12630.000000,0.882924
12635.000000,0.882861
12640.000000,0.883277
12645.000000,0.883154
12650.000000,0.883056
12655.000000,0.882877
12660.000000,0.882532
12665.000000,0.882403
12670.000000,0.882197
12675.000000,0.881972
12680.000000,0.881748
12685.000000,0.881773
12690.000000,0.881827
12695.000000,0.881970
12700.000000,0.882452
12705.000000,0.883093
12710.000000,0.883399
12715.000000,0.884287
12720.000000,0.884515
12725.000000,0.884928
12730.000000,0.885304
12735.000000,0.884798
12740.000000,0.884249
12745.000000,0.883408
12750.000000,0.881382
12755.000000,0.878577
12760.000000,0.875224
12765.000000,0.870933
12770.000000,0.865481
12775.000000,0.858760
12780.000000,0.850761
12785.000000,0.842301
12790.000000,0.832750
12795.000000,0.822728
12800.000000,0.811276
12805.000000,0.799470
12810.000000,0.786551
12815.000000,0.773587
12820.000000,0.761399
12825.000000,0.748466
12830.000000,0.736017
12835.000000,0.723826
12840.000000,0.711743
12845.000000,0.700276
12850.000000,0.690357
12855.000000,0.681446
12860.000000,0.673133
12865.000000,0.665851
12870.000000,0.659459
12875.000000,0.654687
12880.000000,0.651122
12885.000000,0.648789
12890.000000,0.647786
12895.000000,0.648123
12900.000000,0.649468
12905.000000,0.652554
12910.000000,0.656811
12915.000000,0.661665
12920.000000,0.668121
12925.000000,0.675311
12930.000000,0.684185
12935.000000,0.693300
12940.000000,0.703397
12945.000000,0.713532
12950.000000,0.724272
12955.000000,0.734571
12960.000000,0.745102
12965.000000,0.755172
12970.000000,0.765584
12975.000000,0.774212
12980.000000,0.781636
12985.000000,0.787452
12990.000000,0.792090
12995.000000,0.795537
13000.000000,0.797036
13005.000000,0.797003
13010.000000,0.795582
13015.000000,0.792293
13020.000000,0.788575
13025.000000,0.783617
13030.000000,0.777275
13035.000000,0.770949
13040.000000,0.763818
13045.000000,0.757515
13050.000000,0.751171
13055.000000,0.745138
13060.000000,0.739664
13065.000000,0.734546
13070.000000,0.730924
13075.000000,0.728336
13080.000000,0.726894
13085.000000,0.726659
13090.000000,0.727538
13095.000000,0.729825
13100.000000,0.733890
13105.000000,0.738568
13110.000000,0.744731
13115.000000,0.751674
13120.000000,0.759971
13125.000000,0.769178
13130.000000,0.779031
13135.000000,0.788689
13140.000000,0.798272
13145.000000,0.807636
13150.000000,0.816423
13155.000000,0.824393
13160.000000,0.831091
13165.000000,0.835693
13170.000000,0.838316
13175.000000,0.839046
13180.000000,0.837378
13185.000000,0.833154
13190.000000,0.826741
13195.000000,0.817662
13200.000000,0.807287
13205.000000,0.794993
13210.000000,0.781437
13215.000000,0.766744
13220.000000,0.750086
13225.000000,0.733194
13230.000000,0.717546
13235.000000,0.702001
13240.000000,0.686742
13245.000000,0.672504
13250.000000,0.659180
13255.000000,0.646372
13260.000000,0.635687
13265.000000,0.626969
13270.000000,0.619434
13275.000000,0.613402
13280.000000,0.608855
13285.000000,0.606126
13290.000000,0.605361
13295.000000,0.606194
13300.000000,0.609005
13305.000000,0.613418
13310.000000,0.619817
13315.000000,0.628518
13320.000000,0.638838
13325.000000,0.650512
13330.000000,0.663831
13335.000000,0.678392
13340.000000,0.694242
13345.000000,0.712898
13350.000000,0.732333
13355.000000,0.751020
13360.000000,0.770136
13365.000000,0.789281
13370.000000,0.807415
13375.000000,0.825453
13380.000000,0.841584
13385.000000,0.855221
13390.000000,0.865453
13395.000000,0.872748
13400.000000,0.877044
13405.000000,0.877433
13410.000000,0.874101
13415.000000,0.867057
13420.000000,0.857501
13425.000000,0.844764
13430.000000,0.829704
13435.000000,0.811833
13440.000000,0.793238
13445.000000,0.772225
13450.000000,0.752861
13455.000000,0.733157
13460.000000,0.714663
13465.000000,0.695796
13470.000000,0.677500
13475.000000,0.659643
13480.000000,0.644331
13485.000000,0.630734
13490.000000,0.618389
13495.000000,0.607500
13500.000000,0.598162
13505.000000,0.589568
13510.000000,0.582860
13515.000000,0.577661
13520.000000,0.573798
13525.000000,0.571245
13530.000000,0.569555
13535.000000,0.569146
13540.000000,0.570249
13545.000000,0.572075
13550.000000,0.574838
13555.000000,0.578784
13560.000000,0.582975
13565.000000,0.588160
13570.000000,0.593779
13575.000000,0.599077
13580.000000,0.604926
13585.000000,0.610902
13590.000000,0.617133
13595.000000,0.622973
13600.000000,0.628440
13605.000000,0.633960
13610.000000,0.638841
13615.000000,0.642914
13620.000000,0.646658
13625.000000,0.650003
13630.000000,0.652188
13635.000000,0.653447
13640.000000,0.654133
13645.000000,0.654083
13650.000000,0.653685
13655.000000,0.652915
13660.000000,0.651875
13665.000000,0.650446
13670.000000,0.648447
13675.000000,0.646399
13680.000000,0.644353
13685.000000,0.642270
13690.000000,0.640479
13695.000000,0.638910
13700.000000,0.637129
13705.000000,0.636065
13710.000000,0.634646
13715.000000,0.634005
13720.000000,0.633319
13725.000000,0.632948
13730.000000,0.633008
13735.000000,0.633467
13740.000000,0.633869
13745.000000,0.634996
13750.000000,0.636107
13755.000000,0.637643
13760.000000,0.639166
13765.000000,0.641156
13770.000000,0.642910
13775.000000,0.645203
13780.000000,0.646974
13785.000000,0.649225
13790.000000,0.651229
13795.000000,0.653535
13800.000000,0.655464
13805.000000,0.657652
13810.000000,0.659504
13815.000000,0.661703
13820.000000,0.663516
13825.000000,0.665800
13830.000000,0.667601
13835.000000,0.669577
13840.000000,0.670661
13845.000000,0.672303
13850.000000,0.672845
13855.000000,0.673570
13860.000000,0.674195
13865.000000,0.673830
13870.000000,0.673229
13875.000000,0.671864
13880.000000,0.669061
13885.000000,0.665464
13890.000000,0.660345
13895.000000,0.654263
13900.000000,0.647115
13905.000000,0.639092
13910.000000,0.628151
13915.000000,0.614291
13920.000000,0.597418
13925.000000,0.580195
13930.000000,0.562032
13935.000000,0.542978
13940.000000,0.522739
13945.000000,0.500525
13950.000000,0.474033
13955.000000,0.447598
13960.000000,0.421979
13965.000000,0.396936
13970.000000,0.373652
13975.000000,0.351459
13980.000000,0.328606
13985.000000,0.308027
13990.000000,0.288174
13995.000000,0.268299
14000.000000,0.248083
14005.000000,0.229585
14010.000000,0.211603
14015.000000,0.195545
14020.000000,0.182420
14025.000000,0.170673
14030.000000,0.159811
14035.000000,0.148885
14040.000000,0.138296
14045.000000,0.128391
14050.000000,0.119581
14055.000000,0.111949
14060.000000,0.104452
14065.000000,0.097931
14070.000000,0.092059
14075.000000,0.086296
14080.000000,0.080938
14085.000000,0.076177
14090.000000,0.071683
14095.000000,0.067759
14100.000000,0.063749
14105.000000,0.059906
14110.000000,0.056702
14115.000000,0.053917
14120.000000,0.051291
14125.000000,0.048634
14130.000000,0.046130
14135.000000,0.043697
14140.000000,0.041381
14145.000000,0.039326
14150.000000,0.037464
14155.000000,0.035638
14160.000000,0.033931
14165.000000,0.032462
14170.000000,0.030818
14175.000000,0.029384
14180.000000,0.028099
14185.000000,0.026819
14190.000000,0.025503
14195.000000,0.024349
14200.000000,0.023083
14205.000000,0.022109
14210.000000,0.021199
14215.000000,0.020227
14220.000000,0.019416
14225.000000,0.018542
14230.000000,0.017758
14235.000000,0.016882
14240.000000,0.016323
14245.000000,0.015631
14250.000000,0.014893
14255.000000,0.014326
14260.000000,0.013616
14265.000000,0.013148
14270.000000,0.012544
14275.000000,0.012106
14280.000000,0.011671
14285.000000,0.011160
14290.000000,0.010648
14295.000000,0.010282
14300.000000,0.009784
14305.000000,0.009539
14310.000000,0.009105
14315.000000,0.008752
14320.000000,0.008399
14325.000000,0.008047
14330.000000,0.007727
14335.000000,0.007451
14340.000000,0.007217
14345.000000,0.006870
14350.000000,0.006545
14355.000000,0.006481
14360.000000,0.006191
14365.000000,0.005879
14370.000000,0.005590
14375.000000,0.005407
14380.000000,0.005231
14385.000000,0.004964
14390.000000,0.004740
14395.000000,0.004488
14400.000000,0.004461
14405.000000,0.004265
14410.000000,0.004013
14415.000000,0.003852
14420.000000,0.003736
14425.000000,0.003550
14430.000000,0.003377
14435.000000,0.003249
14440.000000,0.003298
14445.000000,0.002978
14450.000000,0.002833
14455.000000,0.002729
14460.000000,0.002637
14465.000000,0.002571
14470.000000,0.002524
14475.000000,0.002490
14480.000000,0.002156
14485.000000,0.002124
14490.000000,0.002028
14495.000000,0.002016
14500.000000,0.001886
14505.000000,0.001872
14510.000000,0.001824
14515.000000,0.001737
14520.000000,0.001681
14525.000000,0.001651
14530.000000,0.001551
14535.000000,0.001447
14540.000000,0.001468
14545.000000,0.001332
14550.000000,0.001341
14555.000000,0.001275
14560.000000,0.001249
14565.000000,0.001270
14570.000000,0.001296
14575.000000,0.001244
14580.000000,0.001158
14585.000000,0.001093
14590.000000,0.001063
14595.000000,0.001025
14600.000000,0.000933
14605.000000,0.000860
14610.000000,0.000768
14615.000000,0.000735
14620.000000,0.000655
14625.000000,0.000660
14630.000000,0.000637
14635.000000,0.000601
14640.000000,0.000645
14645.000000,0.000680
14650.000000,0.000450
14655.000000,0.000444
14660.000000,0.000451
14665.000000,0.000397
14670.000000,0.000415
14675.000000,0.000384
14680.000000,0.000316
14685.000000,0.000262
14690.000000,0.000242
14695.000000,0.000160
14700.000000,0.000239
14705.000000,0.000237
14710.000000,0.000188
14715.000000,0.000324
14720.000000,0.000174
14725.000000,0.000125
14730.000000,0.000090
14735.000000,0.000114
14740.000000,0.000076
14745.000000,0.000118
14750.000000,0.000091
14755.000000,0.000178
14760.000000,0.000129
14765.000000,0.000112
14770.000000,0.000183
14775.000000,0.000056
14780.000000,0.000178
14785.000000,-0.000035
14790.000000,0.000057
14795.000000,0.000113
14800.000000,0.000120
14805.000000,0.000071
14810.000000,0.000163
14815.000000,0.000002
14820.000000,0.000073
14825.000000,0.000043
14830.000000,0.000078
14835.000000,0.000085
14840.000000,-0.000170
14845.000000,0.000109
14850.000000,0.000093
14855.000000,0.000057
14860.000000,0.000072
14865.000000,0.000093
14870.000000,0.000101
14875.000000,0.000208
14880.000000,-0.000006
14885.000000,0.000000
14890.000000,0.000079
14895.000000,0.000266
14900.000000,0.000130
14905.000000,0.000007
14910.000000,0.000051
14915.000000,0.000101
14920.000000,0.000101
14925.000000,0.000138
14930.000000,0.000022
14935.000000,-0.000160
14940.000000,0.000058
14945.000000,0.000095
14950.000000,0.000007
14955.000000,0.000110
14960.000000,-0.000000
14965.000000,-0.000088
14970.000000,0.000000
14975.000000,0.000051
14980.000000,0.000007
14985.000000,0.000140
14990.000000,0.000015
14995.000000,0.000007
15000.000000,0.000051
15005.000000,0.000044
15010.000000,0.000014
15015.000000,0.000126
15020.000000,0.000044
15025.000000,-0.000178
15030.000000,0.000051
15035.000000,0.000008
15040.000000,0.000082
15045.000000,-0.000119
15050.000000,0.000029
15055.000000,0.000008
15060.000000,0.000045
15065.000000,0.000038
15070.000000,-0.000052
15075.000000,0.000180
15080.000000,0.000000
15085.000000,0.000013
15090.000000,0.000068
15095.000000,0.000030
15100.000000,0.000083
15105.000000,0.000061
15110.000000,-0.000008
15115.000000,-0.000015
15120.000000,-0.000076
15125.000000,0.000107
15130.000000,0.000051
15135.000000,0.000099
15140.000000,0.000092
15145.000000,0.000069
15150.000000,0.000069
15155.000000,0.000031
15160.000000,0.000077
15165.000000,0.000015
15170.000000,0.000082
15175.000000,0.000136
15180.000000,0.000015
15185.000000,-0.000008
15190.000000,-0.000093
15195.000000,0.000000
15200.000000,0.000047
15205.000000,0.000043
15210.000000,-0.000027
15215.000000,-0.000055
15220.000000,-0.000125
15225.000000,0.000308
15230.000000,0.000102
15235.000000,0.000047
15240.000000,0.000078
15245.000000,0.000047
15250.000000,0.000110
15255.000000,-0.000020
15260.000000,0.000122
15265.000000,-0.000166
15270.000000,-0.000032
15275.000000,0.000055
15280.000000,-0.000008
15285.000000,-0.000032
15290.000000,0.000127
15295.000000,0.000072
15300.000000,0.000080
15305.000000,0.000048
15310.000000,0.000072
15315.000000,-0.000024
15320.000000,-0.000078
15325.000000,0.000016
15330.000000,-0.000016
15335.000000,0.000064
15340.000000,-0.000281
15345.000000,0.000169
15350.000000,0.000097
15355.000000,0.000049
15360.000000,0.000147
15365.000000,0.000065
15370.000000,-0.000008
15375.000000,0.000049
15380.000000,-0.000065
15385.000000,-0.000008
15390.000000,-0.000008
15395.000000,0.000033
15400.000000,0.000098
15405.000000,0.000058
15410.000000,-0.000008
15415.000000,0.000033
15420.000000,0.000058
15425.000000,0.000090
15430.000000,-0.000041
15435.000000,0.000091
15440.000000,-0.000025
15445.000000,0.000017
15450.000000,0.000041
15455.000000,0.000116
15460.000000,0.000033
15465.000000,0.000033
15470.000000,0.000008
15475.000000,-0.000017
15480.000000,-0.000042
15485.000000,-0.000000
15490.000000,-0.000008
15495.000000,-0.000017
15500.000000,0.000017
15505.000000,-0.000017
15510.000000,-0.000025
15515.000000,-0.000050
15520.000000,0.000026
15525.000000,0.000110
15530.000000,0.000380
15535.000000,0.000075
15540.000000,0.000110
15545.000000,0.000059
15550.000000,0.000058
15555.000000,-0.000000
15560.000000,-0.000145
15565.000000,-0.000188
15570.000000,-0.000011
15575.000000,-0.000011
15580.000000,0.000043
15585.000000,-0.000034
15590.000000,0.000026
15595.000000,0.000127
15600.000000,-0.000052
15605.000000,0.000086
15610.000000,-0.000052
15615.000000,0.000110
15620.000000,0.000061
15625.000000,0.000066
15630.000000,0.000075
15635.000000,0.000052
15640.000000,-0.000130
15645.000000,0.000079
15650.000000,0.000070
15655.000000,-0.000026
15660.000000,0.000000
15665.000000,0.000053
15670.000000,0.000053
15675.000000,0.000348
15680.000000,-0.000062
15685.000000,-0.000000
15690.000000,-0.000124
15695.000000,0.000075
15700.000000,-0.000026
15705.000000,0.000133
15710.000000,0.000080
15715.000000,0.000062
15720.000000,0.000116
15725.000000,0.000071
15730.000000,0.000000
15735.000000,0.000027
15740.000000,0.000075
15745.000000,0.000081
15750.000000,-0.000005
15755.000000,-0.000063
15760.000000,-0.000072
15765.000000,0.000102
15770.000000,0.000063
15775.000000,-0.000108
15780.000000,-0.000009
15785.000000,-0.000009
15790.000000,0.000018
15795.000000,0.000091
15800.000000,-0.000027
15805.000000,0.000091
15810.000000,0.000046
15815.000000,0.000130
15820.000000,0.000082
15825.000000,0.000027
15830.000000,0.000057
15835.000000,0.000046
15840.000000,-0.000018
15845.000000,0.000037
15850.000000,0.000028
15855.000000,0.000018
15860.000000,0.000074
15865.000000,0.000111
15870.000000,0.000083
15875.000000,0.000000
15880.000000,0.000046
15885.000000,-0.000009
15890.000000,0.000076
15895.000000,0.000028
15900.000000,0.000215
15905.000000,0.000196
15910.000000,-0.000140
15915.000000,0.000056
15920.000000,0.000142
15925.000000,0.000047
15930.000000,0.000075
15935.000000,0.000160
15940.000000,0.000066
15945.000000,0.000151
15950.000000,-0.000038
15955.000000,0.000019
15960.000000,0.000076
15965.000000,0.000000
15970.000000,0.000010
15975.000000,0.000010
15980.000000,0.000201
15985.000000,0.000325
15990.000000,-0.000163
15995.000000,0.000019
16000.000000,0.000010
16000.000977,0.000000
