# WAVELENGTH_UNIT	AA
# COMPNAME       	CFHT_MEGAPRIME_CFH9601
# NAME           	CFHT_MEGAPRIME_CFH9601
# DETECTOR       	photon
#
## WAVELENGTH	None	AA
## THROUGHPUT	None	filter throughput definition
#
WAVELENGTH,THROUGHPUT
3540.000000,0.001790
3560.000000,0.002080
3580.000000,0.002000
3600.000000,0.001910
3620.000000,0.001800
3640.000000,0.001430
3660.000000,0.001420
3680.000000,0.001420
3700.000000,0.001460
3720.000000,0.001560
3740.000000,0.001650
3760.000000,0.001740
3780.000000,0.001720
3800.000000,0.001620
3820.000000,0.001500
3840.000000,0.001390
3860.000000,0.001390
3880.000000,0.001480
3900.000000,0.001590
3920.000000,0.001600
3940.000000,0.001480
3960.000000,0.001220
3980.000000,0.000930
4000.000000,0.000690
4020.000000,0.000550
4040.000000,0.000520
4060.000000,0.000580
4080.000000,0.000690
4100.000000,0.000790
4120.000000,0.000850
4140.000000,0.000810
4160.000000,0.000670
4180.000000,0.000530
4200.000000,0.000410
4220.000000,0.000320
4240.000000,0.000290
4260.000000,0.000260
4280.000000,0.000240
4300.000000,0.000230
4320.000000,0.000210
4340.000000,0.000200
4360.000000,0.000180
4380.000000,0.000170
4400.000000,0.000150
4420.000000,0.000140
4440.000000,0.000140
4460.000000,0.000140
4480.000000,0.000140
4500.000000,0.000120
4520.000000,0.000120
4540.000000,0.000120
4560.000000,0.000120
4580.000000,0.000120
4600.000000,0.000110
4620.000000,0.000110
4640.000000,0.000110
4660.000000,0.000110
4680.000000,0.000110
4700.000000,0.000090
4720.000000,0.000090
4740.000000,0.000080
4760.000000,0.000090
4780.000000,0.000090
4800.000000,0.000080
4820.000000,0.000090
4840.000000,0.000090
4860.000000,0.000110
4880.000000,0.000120
4900.000000,0.000120
4920.000000,0.000120
4940.000000,0.000120
4960.000000,0.000120
4980.000000,0.000120
5000.000000,0.000120
5020.000000,0.000120
5040.000000,0.000140
5060.000000,0.000150
5080.000000,0.000170
5100.000000,0.000180
5120.000000,0.000200
5140.000000,0.000240
5160.000000,0.000290
5180.000000,0.000340
5200.000000,0.000400
5220.000000,0.000490
5240.000000,0.000600
5260.000000,0.000760
5280.000000,0.000990
5300.000000,0.001310
5320.000000,0.001740
5340.000000,0.002330
5360.000000,0.003130
5380.000000,0.004260
5400.000000,0.005910
5420.000000,0.008300
5440.000000,0.011930
5460.000000,0.017430
5480.000000,0.025700
5500.000000,0.037900
5520.000000,0.055400
5540.000000,0.079860
5560.000000,0.112790
5580.000000,0.155530
5600.000000,0.208920
5620.000000,0.272990
5640.000000,0.347350
5660.000000,0.429340
5680.000000,0.514820
5700.000000,0.597400
5720.000000,0.669450
5740.000000,0.725480
5760.000000,0.761460
5780.000000,0.778060
5800.000000,0.779270
5820.000000,0.771220
5840.000000,0.761250
5860.000000,0.754260
5880.000000,0.753390
5900.000000,0.757890
5920.000000,0.765590
5940.000000,0.774080
5960.000000,0.781600
5980.000000,0.788300
6000.000000,0.795650
6020.000000,0.805180
6040.000000,0.817860
6060.000000,0.833630
6080.000000,0.851100
6100.000000,0.868820
6120.000000,0.884870
6140.000000,0.898010
6160.000000,0.907990
6180.000000,0.915630
6200.000000,0.922180
6220.000000,0.928890
6240.000000,0.936310
6260.000000,0.943790
6280.000000,0.950640
6300.000000,0.956100
6320.000000,0.960080
6340.000000,0.962230
6360.000000,0.962950
6380.000000,0.962110
6400.000000,0.959300
6420.000000,0.955180
6440.000000,0.949830
6460.000000,0.944110
6480.000000,0.938280
6500.000000,0.931790
6520.000000,0.923690
6540.000000,0.912000
6560.000000,0.895600
6580.000000,0.874010
6600.000000,0.846880
6620.000000,0.815460
6640.000000,0.781570
6660.000000,0.748020
6680.000000,0.718550
6700.000000,0.696640
6720.000000,0.685150
6740.000000,0.685620
6760.000000,0.699020
6780.000000,0.723570
6800.000000,0.751190
6820.000000,0.766450
6840.000000,0.748280
6860.000000,0.680660
6880.000000,0.564940
6900.000000,0.420760
6920.000000,0.279100
6940.000000,0.165740
6960.000000,0.090230
6980.000000,0.047790
7000.000000,0.026410
7020.000000,0.015690
7040.000000,0.009900
7060.000000,0.006530
7080.000000,0.004460
7100.000000,0.003140
7120.000000,0.002290
7140.000000,0.001720
7160.000000,0.001360
7180.000000,0.001100
7200.000000,0.000930
7220.000000,0.000810
7240.000000,0.000700
7260.000000,0.000630
7280.000000,0.000560
7300.000000,0.000520
7320.000000,0.000500
7340.000000,0.000490
7360.000000,0.000470
7380.000000,0.000460
7400.000000,0.000460
7420.000000,0.000460
7440.000000,0.000470
7460.000000,0.000490
7480.000000,0.000490
7500.000000,0.000490
7520.000000,0.000490
7540.000000,0.000490
7560.000000,0.000490
7580.000000,0.000500
7600.000000,0.000520
7620.000000,0.000530
7640.000000,0.000550
7660.000000,0.000560
7680.000000,0.000580
7700.000000,0.000580
7720.000000,0.000580
7740.000000,0.000600
7760.000000,0.000610
7780.000000,0.000630
7800.000000,0.000670
7820.000000,0.000690
7840.000000,0.000700
7860.000000,0.000730
7880.000000,0.000750
7900.000000,0.000760
7920.000000,0.000790
7940.000000,0.000790
7960.000000,0.000790
7980.000000,0.000820
8000.000000,0.000850
8020.000000,0.000890
8040.000000,0.000920
8060.000000,0.000930
8080.000000,0.000950
8100.000000,0.000990
8120.000000,0.000990
8140.000000,0.001020
8160.000000,0.001070
8180.000000,0.001080
8200.000000,0.001130
8220.000000,0.001160
8240.000000,0.001190
8260.000000,0.001210
8280.000000,0.002580
8300.000000,-0.001750
8320.000000,-0.007690
8340.000000,-0.009550
8360.000000,-0.010470
8380.000000,-0.004170
8400.000000,-0.002230
8420.000000,0.000690
8440.000000,0.001950
8460.000000,-0.002300
8480.000000,0.001390
8500.000000,-0.001190
8520.000000,-0.008700
8540.000000,-0.008450
8560.000000,-0.010700
8580.000000,-0.012790
8600.000000,-0.004150
8620.000000,-0.004940
8640.000000,-0.004680
8660.000000,-0.000900
8680.000000,-0.003190
8700.000000,-0.002820
8720.000000,-0.001250
8740.000000,-0.005400
8760.000000,-0.007480
8780.000000,-0.007550
8800.000000,-0.007510
8820.000000,-0.004880
8840.000000,-0.006060
8860.000000,-0.004100
8880.000000,-0.004990
8900.000000,-0.005750
8920.000000,-0.003680
8940.000000,-0.004200
8960.000000,-0.003220
