# WAVELENGTH_UNIT	AA
# COMPNAME       	HST_NIC2_F110W
# NAME           	HST_NIC2_F110W
# DETECTOR       	photon
#
## WAVELENGTH	None	AA
## THROUGHPUT	None	filter throughput definition
#
WAVELENGTH,THROUGHPUT
7553.460000,0.000003
7561.930000,0.000007
7570.390000,0.000017
7578.850000,0.000017
7587.320000,0.000034
7595.780000,0.000066
7604.240000,0.000113
7612.710000,0.000178
7621.170000,0.000278
7629.630000,0.000414
7638.100000,0.000567
7646.560000,0.000740
7655.030000,0.000911
7663.490000,0.001066
7671.950000,0.001218
7680.420000,0.001339
7688.880000,0.001437
7697.340000,0.001524
7705.810000,0.001599
7714.270000,0.001665
7722.730000,0.001769
7731.200000,0.001883
7739.660000,0.002040
7748.120000,0.002252
7756.590000,0.002486
7765.050000,0.002787
7773.510000,0.003156
7781.980000,0.003595
7790.440000,0.004142
7798.900000,0.004844
7807.370000,0.005711
7815.830000,0.006834
7824.290000,0.008245
7832.760000,0.010032
7841.220000,0.012266
7849.680000,0.014990
7858.150000,0.018376
7866.610000,0.022399
7875.080000,0.026920
7883.540000,0.031953
7892.000000,0.037173
7900.470000,0.042432
7908.930000,0.047650
7917.390000,0.052764
7925.860000,0.057834
7934.320000,0.063078
7942.780000,0.068785
7951.250000,0.075189
7959.710000,0.082859
7968.170000,0.092233
7976.640000,0.103836
7985.100000,0.117981
7993.560000,0.135596
8002.030000,0.157050
8010.490000,0.181794
8018.950000,0.210564
8027.420000,0.242481
8035.880000,0.276723
8044.340000,0.312163
8052.810000,0.346575
8061.270000,0.378661
8069.730000,0.407857
8078.200000,0.432491
8086.660000,0.453850
8095.130000,0.470387
8103.590000,0.481788
8112.050000,0.488099
8120.520000,0.491030
8128.980000,0.491279
8137.440000,0.490825
8145.910000,0.490684
8154.370000,0.491045
8162.830000,0.490713
8171.300000,0.489356
8179.760000,0.485813
8188.220000,0.479237
8196.690000,0.469921
8205.150000,0.459615
8213.610000,0.448764
8222.080000,0.439240
8230.540000,0.431284
8239.000000,0.426018
8247.470000,0.422976
8255.930000,0.421729
8264.390000,0.421217
8272.860000,0.420580
8281.320000,0.418266
8289.780000,0.415301
8298.250000,0.411715
8306.710000,0.409225
8315.180000,0.409154
8323.640000,0.413097
8332.100000,0.419420
8340.570000,0.427324
8349.030000,0.434244
8357.490000,0.437361
8365.960000,0.435440
8374.420000,0.429193
8382.880000,0.421136
8391.350000,0.413851
8399.810000,0.410139
8408.270000,0.409257
8416.740000,0.409563
8425.200000,0.407251
8433.660000,0.398495
8442.130000,0.382202
8450.590000,0.360732
8459.050000,0.337355
8467.520000,0.317973
8475.980000,0.306315
8484.440000,0.304606
8492.910000,0.315481
8501.370000,0.337249
8509.830000,0.366978
8518.300000,0.398502
8526.760000,0.422242
8535.230000,0.429742
8543.690000,0.416918
8552.150000,0.389710
8560.620000,0.357633
8569.080000,0.329348
8577.540000,0.309631
8586.010000,0.301022
8594.470000,0.302729
8602.930000,0.314897
8611.400000,0.335291
8619.860000,0.360599
8628.320000,0.387766
8636.790000,0.412233
8645.250000,0.432553
8653.710000,0.445171
8662.180000,0.452699
8670.640000,0.457568
8679.100000,0.462719
8687.570000,0.468912
8696.030000,0.476501
8704.490000,0.481787
8712.960000,0.479964
8721.420000,0.470708
8729.880000,0.450814
8738.350000,0.424473
8746.810000,0.393576
8755.280000,0.364095
8763.740000,0.340773
8772.200000,0.321137
8780.670000,0.307115
8789.130000,0.295841
8797.590000,0.285260
8806.060000,0.274274
8814.520000,0.262078
8822.980000,0.248688
8831.450000,0.233389
8839.910000,0.219904
8848.370000,0.209487
8856.840000,0.202976
8865.300000,0.200582
8873.760000,0.204371
8882.230000,0.213417
8890.690000,0.227099
8899.150000,0.244280
8907.620000,0.259870
8916.080000,0.271855
8924.540000,0.276395
8933.010000,0.271855
8941.470000,0.260784
8949.930000,0.246064
8958.400000,0.231322
8966.860000,0.220728
8975.330000,0.214939
8983.790000,0.216102
8992.250000,0.224510
9000.720000,0.239402
9009.180000,0.263304
9017.640000,0.294620
9026.110000,0.329760
9034.570000,0.366449
9043.030000,0.400054
9051.500000,0.428802
9059.960000,0.447880
9068.420000,0.458439
9076.890000,0.463636
9085.350000,0.465753
9093.810000,0.467855
9102.280000,0.471644
9110.740000,0.477190
9119.200000,0.484336
9127.670000,0.491610
9136.130000,0.498065
9144.590000,0.503566
9153.060000,0.506938
9161.520000,0.508898
9169.980000,0.510214
9178.450000,0.511432
9186.910000,0.512659
9195.380000,0.513720
9203.840000,0.514362
9212.300000,0.512996
9220.770000,0.509719
9229.230000,0.503962
9237.690000,0.495329
9246.160000,0.485126
9254.620000,0.475551
9263.080000,0.466775
9271.550000,0.459779
9280.010000,0.456040
9288.470000,0.456189
9296.940000,0.459428
9305.400000,0.465572
9313.860000,0.473994
9322.330000,0.483395
9330.790000,0.492966
9339.250000,0.502285
9347.720000,0.510317
9356.180000,0.516707
9364.640000,0.522114
9373.110000,0.526418
9381.570000,0.529979
9390.040000,0.533470
9398.500000,0.536341
9406.960000,0.538969
9415.430000,0.541323
9423.890000,0.542680
9432.350000,0.543965
9440.820000,0.544784
9449.280000,0.545962
9457.740000,0.547915
9466.210000,0.550516
9474.670000,0.553890
9483.130000,0.557673
9491.600000,0.561448
9500.060000,0.564622
9508.520000,0.565847
9516.990000,0.565486
9525.450000,0.563585
9533.910000,0.560447
9542.380000,0.557338
9550.840000,0.554992
9559.300000,0.554407
9567.770000,0.556404
9576.230000,0.560758
9584.690000,0.567859
9593.160000,0.576948
9601.620000,0.586443
9610.090000,0.595887
9618.550000,0.604143
9627.010000,0.610783
9635.480000,0.614808
9643.940000,0.617381
9652.400000,0.619037
9660.870000,0.620632
9669.330000,0.622652
9677.790000,0.625836
9686.260000,0.630025
9694.720000,0.634639
9703.180000,0.639017
9711.650000,0.642659
9720.110000,0.644716
9728.570000,0.645809
9737.040000,0.645692
9745.500000,0.645297
9753.960000,0.645451
9762.430000,0.647324
9770.890000,0.650880
9779.350000,0.656456
9787.820000,0.663292
9796.280000,0.670520
9804.740000,0.677523
9813.210000,0.682400
9821.670000,0.684711
9830.140000,0.683890
9838.600000,0.680233
9847.060000,0.674899
9855.530000,0.669735
9863.990000,0.665470
9872.450000,0.663856
9880.920000,0.664877
9889.380000,0.669307
9897.840000,0.676308
9906.310000,0.684994
9914.770000,0.694204
9923.230000,0.702428
9931.700000,0.709122
9940.160000,0.713112
9948.620000,0.714733
9957.090000,0.714600
9965.550000,0.713588
9974.010000,0.712606
9982.480000,0.712634
9990.940000,0.714158
9999.400000,0.717394
10007.900000,0.720713
10016.300000,0.724380
10024.800000,0.727839
10033.300000,0.730387
10041.700000,0.731718
10050.200000,0.731505
10058.600000,0.730286
10067.100000,0.728414
10075.600000,0.727219
10084.000000,0.726721
10092.500000,0.727220
10101.000000,0.728572
10109.400000,0.730094
10117.900000,0.730967
10126.400000,0.730272
10134.800000,0.727125
10143.300000,0.721382
10151.700000,0.712562
10160.200000,0.701479
10168.700000,0.689833
10177.100000,0.678477
10185.600000,0.668027
10194.100000,0.659681
10202.500000,0.654796
10211.000000,0.652721
10219.500000,0.653459
10227.900000,0.656301
10236.400000,0.659987
10244.800000,0.664020
10253.300000,0.667814
10261.800000,0.669841
10270.200000,0.670523
10278.700000,0.669646
10287.200000,0.668091
10295.600000,0.666123
10304.100000,0.664639
10312.600000,0.663971
10321.000000,0.664482
10329.500000,0.666341
10337.900000,0.669368
10346.400000,0.672849
10354.900000,0.677163
10363.300000,0.681144
10371.800000,0.684907
10380.300000,0.689128
10388.700000,0.693146
10397.200000,0.697755
10405.700000,0.703037
10414.100000,0.709892
10422.600000,0.717582
10431.000000,0.725296
10439.500000,0.733062
10448.000000,0.738432
10456.400000,0.739996
10464.900000,0.736779
10473.400000,0.726863
10481.800000,0.711082
10490.300000,0.690504
10498.700000,0.666801
10507.200000,0.640192
10515.700000,0.615923
10524.100000,0.594261
10532.600000,0.575601
10541.100000,0.561673
10549.500000,0.553808
10558.000000,0.550941
10566.500000,0.553397
10574.900000,0.560261
10583.400000,0.571416
10591.800000,0.585603
10600.300000,0.602728
10608.800000,0.619682
10617.200000,0.636513
10625.700000,0.651743
10634.200000,0.666318
10642.600000,0.676600
10651.100000,0.683808
10659.600000,0.687407
10668.000000,0.686657
10676.500000,0.682158
10684.900000,0.673252
10693.400000,0.659824
10701.900000,0.642464
10710.300000,0.622924
10718.800000,0.600485
10727.300000,0.575930
10735.700000,0.551990
10744.200000,0.529363
10752.700000,0.508703
10761.100000,0.490388
10769.600000,0.477417
10778.000000,0.468299
10786.500000,0.463868
10795.000000,0.464427
10803.400000,0.470005
10811.900000,0.480539
10820.400000,0.496082
10828.800000,0.516302
10837.300000,0.539755
10845.800000,0.566926
10854.200000,0.597088
10862.700000,0.626853
10871.100000,0.655773
10879.600000,0.683468
10888.100000,0.708352
10896.500000,0.728627
10905.000000,0.744943
10913.500000,0.757465
10921.900000,0.765952
10930.400000,0.770542
10938.800000,0.771773
10947.300000,0.769146
10955.800000,0.763338
10964.200000,0.754126
10972.700000,0.741555
10981.200000,0.725828
10989.600000,0.709098
10998.100000,0.690993
11006.600000,0.673574
11015.000000,0.657323
11023.500000,0.644716
11031.900000,0.635259
11040.400000,0.629476
11048.900000,0.628768
11057.300000,0.633133
11065.800000,0.642054
11074.300000,0.655712
11082.700000,0.672977
11091.200000,0.692305
11099.700000,0.713177
11108.100000,0.734447
11116.600000,0.752441
11125.000000,0.767396
11133.500000,0.777650
11142.000000,0.783410
11150.400000,0.784457
11158.900000,0.781875
11167.400000,0.777407
11175.800000,0.771794
11184.300000,0.766932
11192.800000,0.763814
11201.200000,0.762424
11209.700000,0.763355
11218.100000,0.766126
11226.600000,0.770225
11235.100000,0.775147
11243.500000,0.779206
11252.000000,0.782101
11260.500000,0.783339
11268.900000,0.782087
11277.400000,0.779317
11285.900000,0.774926
11294.300000,0.769370
11302.800000,0.763998
11311.200000,0.759410
11319.700000,0.756303
11328.200000,0.755266
11336.600000,0.756131
11345.100000,0.758941
11353.600000,0.763179
11362.000000,0.768316
11370.500000,0.773311
11378.900000,0.776825
11387.400000,0.778519
11395.900000,0.778057
11404.300000,0.774866
11412.800000,0.769565
11421.300000,0.761931
11429.700000,0.753492
11438.200000,0.745260
11446.700000,0.737860
11455.100000,0.731947
11463.600000,0.728913
11472.000000,0.729173
11480.500000,0.732539
11489.000000,0.739728
11497.400000,0.749530
11505.900000,0.761435
11514.400000,0.775297
11522.800000,0.789546
11531.300000,0.803144
11539.800000,0.815446
11548.200000,0.826017
11556.700000,0.833417
11565.100000,0.838015
11573.600000,0.840091
11582.100000,0.839798
11590.500000,0.837870
11599.000000,0.835443
11607.500000,0.833030
11615.900000,0.831437
11624.400000,0.830652
11632.900000,0.831308
11641.300000,0.832984
11649.800000,0.835311
11658.200000,0.837806
11666.700000,0.840514
11675.200000,0.842277
11683.600000,0.843177
11692.100000,0.842511
11700.600000,0.840970
11709.000000,0.838107
11717.500000,0.834793
11726.000000,0.831492
11734.400000,0.828573
11742.900000,0.826401
11751.300000,0.825900
11759.800000,0.826670
11768.300000,0.829125
11776.700000,0.832708
11785.200000,0.837290
11793.700000,0.842035
11802.100000,0.846323
11810.600000,0.848997
11819.000000,0.849607
11827.500000,0.847510
11836.000000,0.842767
11844.400000,0.835389
11852.900000,0.825754
11861.400000,0.813971
11869.800000,0.801999
11878.300000,0.790632
11886.800000,0.780314
11895.200000,0.771605
11903.700000,0.766168
11912.100000,0.763675
11920.600000,0.764757
11929.100000,0.769954
11937.500000,0.778285
11946.000000,0.789653
11954.500000,0.804189
11962.900000,0.821146
11971.400000,0.838179
11979.900000,0.855457
11988.300000,0.872306
11996.800000,0.887411
12005.200000,0.900089
12013.700000,0.909001
12022.200000,0.914719
12030.600000,0.917472
12039.100000,0.917649
12047.600000,0.915975
12056.000000,0.913051
12064.500000,0.909864
12073.000000,0.906840
12081.400000,0.904392
12089.900000,0.902645
12098.300000,0.902387
12106.800000,0.903544
12115.300000,0.904187
12123.700000,0.905827
12132.200000,0.907431
12140.700000,0.908644
12149.100000,0.909462
12157.600000,0.909060
12166.100000,0.907480
12174.500000,0.906349
12183.000000,0.903769
12191.400000,0.901107
12199.900000,0.898571
12208.400000,0.896029
12216.800000,0.894001
12225.300000,0.892915
12233.800000,0.892425
12242.200000,0.892655
12250.700000,0.893524
12259.100000,0.894274
12267.600000,0.894618
12276.100000,0.894024
12284.500000,0.892185
12293.000000,0.888517
12301.500000,0.882942
12309.900000,0.875301
12318.400000,0.866060
12326.900000,0.855420
12335.300000,0.843700
12343.800000,0.831103
12352.200000,0.819322
12360.700000,0.808254
12369.200000,0.798059
12377.600000,0.790341
12386.100000,0.784778
12394.600000,0.781568
12403.000000,0.781037
12411.500000,0.783056
12420.000000,0.787658
12428.400000,0.794313
12436.900000,0.803090
12445.300000,0.813268
12453.800000,0.824404
12462.300000,0.836506
12470.700000,0.848292
12479.200000,0.859373
12487.700000,0.869862
12496.100000,0.879249
12504.600000,0.886954
12513.100000,0.892706
12521.500000,0.898018
12530.000000,0.901918
12538.400000,0.904827
12546.900000,0.906790
12555.400000,0.908507
12563.800000,0.910398
12572.300000,0.911916
12580.800000,0.913360
12589.200000,0.915319
12597.700000,0.916736
12606.200000,0.918217
12614.600000,0.919776
12623.100000,0.920978
12631.500000,0.921744
12640.000000,0.922358
12648.500000,0.922415
12656.900000,0.922299
12665.400000,0.922166
12673.900000,0.922027
12682.300000,0.921993
12690.800000,0.922328
12699.200000,0.923123
12707.700000,0.924067
12716.200000,0.925200
12724.600000,0.925786
12733.100000,0.925884
12741.600000,0.924835
12750.000000,0.922060
12758.500000,0.916700
12767.000000,0.908892
12775.400000,0.897630
12783.900000,0.883091
12792.300000,0.866180
12800.800000,0.846617
12809.300000,0.824906
12817.700000,0.802570
12826.200000,0.780318
12834.700000,0.758672
12843.100000,0.737826
12851.600000,0.720125
12860.100000,0.705179
12868.500000,0.693018
12877.000000,0.684709
12885.400000,0.680073
12893.900000,0.679534
12902.400000,0.682665
12910.800000,0.689668
12919.300000,0.699719
12927.800000,0.713331
12936.200000,0.729643
12944.700000,0.747597
12953.200000,0.766302
12961.600000,0.784746
12970.100000,0.802854
12978.500000,0.817348
12987.000000,0.827652
12995.500000,0.834308
13003.900000,0.836431
13012.400000,0.834850
13020.900000,0.829802
13029.300000,0.821249
13037.800000,0.810995
13046.300000,0.800813
13054.700000,0.791248
13063.200000,0.783063
13071.600000,0.777781
13080.100000,0.775869
13088.600000,0.777703
13097.000000,0.783639
13105.500000,0.793171
13114.000000,0.806225
13122.400000,0.822710
13130.900000,0.841521
13139.300000,0.860340
13147.800000,0.878412
13156.300000,0.894354
13164.700000,0.905809
13173.200000,0.910755
13181.700000,0.909032
13190.100000,0.900049
13198.600000,0.883592
13207.100000,0.862546
13215.500000,0.837523
13224.000000,0.808047
13232.400000,0.780293
13240.900000,0.753424
13249.400000,0.729196
13257.800000,0.707911
13266.300000,0.692342
13274.800000,0.681175
13283.200000,0.675117
13291.700000,0.674814
13300.200000,0.680097
13308.600000,0.691145
13317.100000,0.708840
13325.500000,0.731561
13334.000000,0.759215
13342.500000,0.791998
13350.900000,0.829807
13359.400000,0.867365
13367.900000,0.904820
13376.300000,0.940405
13384.800000,0.970128
13393.300000,0.989559
13401.700000,0.999195
13410.200000,0.997158
13418.600000,0.983327
13427.100000,0.960299
13435.600000,0.929131
13444.000000,0.892371
13452.500000,0.855679
13461.000000,0.820360
13469.400000,0.785518
13477.900000,0.753582
13486.400000,0.727797
13494.800000,0.706533
13503.300000,0.689763
13511.700000,0.677462
13520.200000,0.669923
13528.700000,0.666648
13537.100000,0.667226
13545.600000,0.671542
13554.100000,0.679189
13562.500000,0.689122
13571.000000,0.701065
13579.400000,0.713302
13587.900000,0.726513
13596.400000,0.739403
13604.800000,0.751501
13613.300000,0.761809
13621.800000,0.770398
13630.200000,0.776741
13638.700000,0.779885
13647.200000,0.780941
13655.600000,0.780700
13664.100000,0.779317
13672.500000,0.776457
13681.000000,0.773386
13689.500000,0.770549
13697.900000,0.768257
13706.400000,0.766852
13714.900000,0.766158
13723.300000,0.766300
13731.800000,0.767712
13740.300000,0.769934
13748.700000,0.773518
13757.200000,0.777821
13765.600000,0.782844
13774.100000,0.788300
13782.600000,0.793678
13791.000000,0.799362
13799.500000,0.805044
13808.000000,0.810430
13816.400000,0.815806
13824.900000,0.821245
13833.400000,0.826305
13841.800000,0.830305
13850.300000,0.833445
13858.700000,0.835994
13867.200000,0.836530
13875.700000,0.835068
13884.100000,0.829463
13892.600000,0.819471
13901.100000,0.805896
13909.500000,0.786824
13918.000000,0.756791
13926.500000,0.721241
13934.900000,0.682543
13943.400000,0.638938
13951.800000,0.585184
13960.300000,0.530734
13968.800000,0.479618
13977.200000,0.432075
13985.700000,0.387098
13994.200000,0.345013
14002.600000,0.303181
14011.100000,0.264946
14019.500000,0.233968
14028.000000,0.209372
14036.500000,0.186123
14044.900000,0.164326
14053.400000,0.146349
14061.900000,0.130653
14070.300000,0.117528
14078.800000,0.105527
14087.300000,0.095251
14095.700000,0.086384
14104.200000,0.077905
14112.600000,0.071138
14121.100000,0.065365
14129.600000,0.059798
14138.000000,0.054613
14146.500000,0.050105
14155.000000,0.046117
14163.400000,0.042628
14171.900000,0.039232
14180.400000,0.036323
14188.800000,0.033507
14197.300000,0.030881
14205.700000,0.028572
14214.200000,0.026526
14222.700000,0.024685
14231.100000,0.022895
14239.600000,0.021359
14248.100000,0.019828
14256.500000,0.018449
14265.000000,0.017201
14273.500000,0.016037
14281.900000,0.015047
14290.400000,0.013938
14298.800000,0.013004
14307.300000,0.012278
14315.800000,0.011445
14324.200000,0.010667
14332.700000,0.009988
14341.200000,0.009413
14349.600000,0.008681
14358.100000,0.008326
14366.600000,0.007655
14375.000000,0.007155
14383.500000,0.006683
14391.900000,0.006154
14400.400000,0.005895
14408.900000,0.005404
14417.300000,0.005047
14425.800000,0.004685
14434.300000,0.004351
14442.700000,0.004162
14451.200000,0.003745
14459.600000,0.003528
14468.100000,0.003395
14476.600000,0.003189
14485.000000,0.002839
14493.500000,0.002705
14502.000000,0.002521
14510.400000,0.002438
14518.900000,0.002274
14527.400000,0.002156
14535.800000,0.001952
14544.300000,0.001822
14552.700000,0.001759
14561.200000,0.001692
14569.700000,0.001745
14578.100000,0.001609
14586.600000,0.001466
14595.100000,0.001383
14603.500000,0.001195
14612.000000,0.001024
14620.500000,0.000890
14628.900000,0.000872
14637.400000,0.000846
14645.800000,0.000873
14654.300000,0.000606
14662.800000,0.000574
14671.200000,0.000556
14679.700000,0.000438
14688.200000,0.000340
14696.600000,0.000254
14705.100000,0.000321
14713.600000,0.000390
14722.000000,0.000212
14730.500000,0.000127
14738.900000,0.000116
14747.400000,0.000144
14755.900000,0.000232
14764.300000,0.000158
14772.800000,0.000155
14781.300000,0.000172
14789.700000,0.000070
14798.200000,0.000163
14806.700000,0.000140
14815.100000,0.000018
14823.600000,0.000071
14832.000000,0.000112
14840.500000,0.000000
14849.000000,0.000134
14857.400000,0.000089
14865.900000,0.000132
14874.400000,0.000271
14882.800000,0.000000
14891.300000,0.000178
14899.700000,0.000192
14908.200000,0.000049
14916.700000,0.000142
14925.100000,0.000183
14933.600000,0.000000
14942.100000,0.000103
14950.500000,0.000026
14959.000000,0.000031
14967.500000,0.000000
14975.900000,0.000061
14984.400000,0.000174
14992.800000,0.000015
15001.300000,0.000070
15009.800000,0.000029
15018.200000,0.000103
15026.700000,0.000000
15035.200000,0.000021
15043.600000,0.000000
15052.100000,0.000028
15060.600000,0.000063
15069.000000,0.000000
15077.500000,0.000129
15085.900000,0.000034
15094.400000,0.000052
15102.900000,0.000100
15111.300000,0.000000
15119.800000,0.000000
15128.300000,0.000100
15136.700000,0.000138
15145.200000,0.000099
15153.700000,0.000059
15162.100000,0.000073
15170.600000,0.000126
15179.000000,0.000055
15187.500000,0.000000
15196.000000,0.000013
15204.400000,0.000061
15212.900000,0.000000
15221.400000,0.000033
15229.800000,0.000166
15238.300000,0.000098
15246.800000,0.000100
15255.200000,0.000004
15263.700000,0.000000
15272.100000,0.000011
15280.600000,0.000000
15289.100000,0.000141
15297.500000,0.000110
15306.000000,0.000076
15314.500000,0.000000
15322.900000,0.000000
15331.400000,0.000013
15339.800000,0.000000
15348.300000,0.000176
15356.800000,0.000122
15365.200000,0.000090
15373.700000,0.000049
15382.200000,0.000000
15390.600000,0.000002
15399.100000,0.000126
15407.600000,0.000035
15416.000000,0.000055
15424.500000,0.000127
15432.900000,0.000054
15441.400000,0.000000
15449.900000,0.000061
15458.300000,0.000089
15466.800000,0.000036
15475.300000,0.000000
15483.700000,0.000000
15492.200000,0.000000
15500.700000,0.000018
15509.100000,0.000000
15517.600000,0.000000
15526.000000,0.000246
15534.500000,0.000155
15543.000000,0.000118
15551.400000,0.000061
15559.900000,0.000000
15568.400000,0.000000
15576.800000,0.000014
15585.300000,0.000000
15593.800000,0.000151
15602.200000,0.000020
15610.700000,0.000001
15619.100000,0.000103
15627.600000,0.000106
15636.100000,0.000021
15644.500000,0.000080
15653.000000,0.000018
15661.500000,0.000023
15669.900000,0.000088
15678.400000,0.000105
15686.900000,0.000000
15695.300000,0.000090
15703.800000,0.000141
15712.200000,0.000108
15720.700000,0.000164
15729.200000,0.000018
15737.600000,0.000079
15746.100000,0.000093
15754.600000,0.000000
15763.000000,0.000051
15771.500000,0.000019
15779.900000,0.000000
15788.400000,0.000014
15796.900000,0.000070
15805.300000,0.000130
15813.800000,0.000167
15822.300000,0.000087
15830.700000,0.000084
15839.200000,0.000002
15847.700000,0.000049
15856.100000,0.000047
15864.600000,0.000162
15873.000000,0.000049
15881.500000,0.000045
15890.000000,0.000102
15898.400000,0.000239
15906.900000,0.000104
15915.400000,0.000092
15923.800000,0.000106
15932.300000,0.000175
15940.800000,0.000121
15949.200000,0.000013
15957.700000,0.000076
15966.100000,0.000003
15974.600000,0.000015
15983.100000,0.000426
15991.500000,0.000000
16000.000000,0.000015
