# WAVELENGTH_UNIT	AA
# COMPNAME       	HST_WFC3_F225W
# NAME           	HST_WFC3_F225W
# DETECTOR       	photon
#
## WAVELENGTH	None	AA
## THROUGHPUT	None	filter throughput definition
#
WAVELENGTH,THROUGHPUT
1858.627441,0.000000
1859.627441,0.000000
1860.627441,0.005454
1880.629883,0.006021
1900.632446,0.000862
1910.633911,0.001178
1920.635254,0.001590
1930.636841,0.002444
1940.638306,0.003291
1950.639893,0.004875
1960.641357,0.006949
1970.643066,0.010057
1980.644653,0.014812
1990.646362,0.021523
2000.648193,0.031153
2010.649902,0.044808
2020.651733,0.063368
2030.653442,0.086806
2040.655273,0.114246
2050.656982,0.143175
2060.658936,0.170862
2070.660889,0.195195
2080.662842,0.216087
2090.664795,0.233327
2100.666748,0.248055
2110.668701,0.261464
2120.670654,0.273622
2130.672607,0.285085
2140.674561,0.295662
2150.676514,0.304759
2160.678711,0.312192
2170.680664,0.317761
2180.682861,0.321319
2190.684814,0.322636
2200.687012,0.322636
2210.688965,0.321434
2220.691162,0.319219
2230.693115,0.316450
2240.695312,0.313781
2250.697510,0.311266
2260.699707,0.309023
2270.701904,0.307336
2280.704102,0.306282
2290.706299,0.305418
2300.708496,0.305302
2310.710449,0.305271
2320.712891,0.305461
2330.715088,0.305690
2340.717285,0.305886
2350.719482,0.305862
2360.721680,0.305341
2370.723877,0.304351
2380.726074,0.302813
2390.728516,0.300696
2400.730713,0.297883
2410.732910,0.294436
2420.735107,0.290260
2430.737549,0.285629
2440.739746,0.280223
2450.742188,0.274544
2460.744385,0.268353
2470.746582,0.261659
2480.749023,0.254641
2490.751221,0.247395
2500.753662,0.239827
2510.756104,0.232020
2520.758301,0.223964
2530.760498,0.215607
2540.762939,0.206999
2550.765381,0.198241
2560.767578,0.189412
2570.770020,0.180318
2580.772461,0.171228
2590.774902,0.162195
2600.777100,0.153056
2610.779541,0.143927
2620.781982,0.135210
2630.784180,0.126419
2640.786621,0.117765
2650.789062,0.109427
2660.791504,0.101583
2670.793701,0.094031
2680.796143,0.086579
2690.798584,0.079384
2700.801025,0.072679
2710.803467,0.066485
2720.805908,0.060609
2730.808350,0.055198
2740.810791,0.049948
2750.812988,0.045207
2760.815674,0.040370
2770.818115,0.036077
2780.820312,0.032902
2790.822998,0.029840
2800.825195,0.026436
2810.827881,0.023891
2820.830078,0.020793
2830.832520,0.018070
2840.835205,0.017309
2850.837646,0.015105
2860.840088,0.014177
2870.842529,0.011230
2880.844971,0.010165
2890.847412,0.009029
2900.849854,0.008153
2910.852295,0.007327
2920.854736,0.006673
2930.857422,0.005754
2940.859863,0.005240
2950.862305,0.004941
2960.864746,0.004393
2970.867188,0.003881
2980.869629,0.003310
2990.872314,0.003022
3000.874756,0.002889
3010.877197,0.002449
3020.879639,0.002356
3030.882080,0.002358
3040.884766,0.002022
3050.887207,0.001600
3060.889648,0.001571
3070.892090,0.001610
3080.894775,0.001296
3090.897217,0.001297
3100.899658,0.001303
3110.902100,0.000968
3120.904785,0.000802
3140.909912,0.000674
3160.914795,0.000580
3180.919922,0.000496
3200.924805,0.000426
3220.929932,0.000366
3240.935059,0.000316
3260.940186,0.000276
3280.945312,0.000244
3300.950195,0.000215
3320.955322,0.000190
3340.960449,0.000169
3360.965576,0.000151
3380.970703,0.000134
3400.975830,0.000121
3420.980957,0.000110
3440.986084,0.000100
3460.991211,0.000092
3480.996338,0.000083
3501.001465,0.000076
3521.006592,0.000069
3541.011719,0.000064
3561.016846,0.000059
3581.021973,0.000054
3601.027100,0.000050
3621.032227,0.000047
3641.037598,0.000044
3661.042480,0.000042
3681.047852,0.000039
3701.052979,0.000036
3721.058105,0.000034
3741.063232,0.000032
3761.068604,0.000030
3781.073730,0.000029
3801.078857,0.000027
3821.083984,0.000026
3841.089355,0.000024
3861.094482,0.000024
3881.099609,0.000022
3901.104980,0.000022
3921.110107,0.000021
3941.115479,0.000020
3961.120605,0.000019
3981.125732,0.000018
4001.131104,0.000018
4021.136230,0.000017
4041.141602,0.000017
4061.146729,0.000016
4081.151855,0.000015
4101.157227,0.000015
4121.162598,0.000014
4141.167480,0.000014
4161.172852,0.000013
4181.178223,0.000013
4201.183594,0.000013
4221.188477,0.000012
4241.193848,0.000012
4261.199219,0.000012
4281.204590,0.000012
4301.209473,0.000011
4321.214844,0.000011
4341.220215,0.000011
4361.225586,0.000010
4381.230469,0.000010
4401.235840,0.000010
4421.241211,0.000010
4441.246582,0.000010
4461.251953,0.000010
4481.257324,0.000010
4501.262207,0.000009
4521.267578,0.000009
4541.272949,0.000009
4561.278320,0.000009
4581.283691,0.000009
4601.288574,0.000008
4621.293945,0.000008
4641.299316,0.000008
4661.304688,0.000008
4681.310059,0.000008
4701.315430,0.000008
4721.320312,0.000008
4741.325684,0.000007
4761.331055,0.000008
4781.336426,0.000008
4801.341797,0.000007
4821.347168,0.000007
4841.352539,0.000008
4861.357422,0.000007
4881.362793,0.000007
4901.368164,0.000007
4921.373535,0.000007
4941.378906,0.000007
4961.384277,0.000007
4981.389648,0.000007
5001.395020,0.000007
5021.399902,0.000007
5041.405273,0.000007
5061.410645,0.000007
5081.416016,0.000007
5101.421387,0.000007
5121.426758,0.000007
5141.432129,0.000007
5161.437500,0.000007
5181.442871,0.000007
5201.448242,0.000007
5221.453613,0.000006
5241.458496,0.000006
5261.463867,0.000006
5281.469238,0.000006
5301.474609,0.000006
5321.479980,0.000006
5341.485352,0.000006
5361.490723,0.000006
5381.496094,0.000006
5401.501465,0.000006
5421.506836,0.000006
5441.512207,0.000006
5461.517578,0.000006
5481.522461,0.000006
5501.527832,0.000006
5521.533203,0.000006
5541.538574,0.000006
5561.543945,0.000006
5581.549316,0.000006
5601.554688,0.000006
5621.560059,0.000006
5641.565430,0.000006
5661.570801,0.000006
5681.576172,0.000006
5701.581543,0.000006
5721.586914,0.000006
5741.592285,0.000006
5761.597656,0.000006
5781.603027,0.000006
5801.608398,0.000006
5821.613770,0.000006
5841.619141,0.000006
5861.624512,0.000005
5881.629883,0.000005
5901.634766,0.000006
5921.640625,0.000005
5941.645508,0.000006
5961.650879,0.000006
5981.656738,0.000005
6001.661621,0.000005
6021.666992,0.000005
6041.672363,0.000005
6061.677734,0.000005
6081.683105,0.000005
6101.688477,0.000005
6121.693848,0.000005
6141.699219,0.000006
6161.704590,0.000005
6181.709961,0.000005
6201.715332,0.000005
6221.720703,0.000005
6241.726074,0.000005
6261.731445,0.000005
6281.736816,0.000005
6301.742188,0.000005
6321.747559,0.000005
6341.752930,0.000005
6361.758301,0.000005
6381.763672,0.000005
6401.769043,0.000005
6421.774414,0.000004
6441.779785,0.000005
6461.785156,0.000005
6481.790527,0.000005
6501.795898,0.000005
6521.801270,0.000005
6541.806641,0.000005
6561.812012,0.000005
6581.817383,0.000005
6601.822754,0.000005
6621.828125,0.000005
6641.833496,0.000005
6661.838867,0.000005
6681.844238,0.000005
6701.849609,0.000005
6721.854980,0.000005
6741.860352,0.000005
6761.865723,0.000005
6781.871094,0.000007
6801.876465,0.000005
6821.882324,0.000005
6841.887695,0.000005
6861.892578,0.000005
6881.898438,0.000005
6901.903809,0.000006
6921.909180,0.000005
6941.914551,0.000005
6961.919922,0.000006
6981.925293,0.000005
7001.930664,0.000005
7021.936035,0.000006
7041.941406,0.000005
7061.946777,0.000005
7081.952148,0.000005
7101.957520,0.000005
7121.962891,0.000006
7141.968262,0.000005
7161.973633,0.000005
7181.979004,0.000005
7201.984375,0.000006
7221.989746,0.000006
7241.995117,0.000006
7262.000488,0.000006
7282.005859,0.000006
7302.011230,0.000006
7322.016602,0.000006
7342.021973,0.000006
7362.027344,0.000006
7382.032715,0.000006
7402.038086,0.000007
7422.043457,0.000006
7442.049316,0.000006
7462.054688,0.000006
7482.060059,0.000006
7502.065430,0.000007
7522.070801,0.000007
7542.076172,0.000007
7562.081543,0.000007
7582.086914,0.000007
7602.092285,0.000008
7622.097656,0.000008
7642.103027,0.000008
7662.108398,0.000008
7682.113770,0.000008
7702.119141,0.000008
7722.124512,0.000008
7742.129883,0.000008
7762.135254,0.000008
7782.140625,0.000009
7802.145996,0.000009
7822.151367,0.000009
7842.157227,0.000009
7862.162598,0.000010
7882.167969,0.000010
7902.173340,0.000010
7922.178711,0.000010
7942.184082,0.000010
7962.189453,0.000011
7982.194824,0.000011
8002.200195,0.000011
8022.205566,0.000012
8042.210938,0.000012
8062.216309,0.000012
8082.221680,0.000012
8102.227539,0.000013
8122.232910,0.000013
8142.238281,0.000013
8162.243652,0.000014
8182.249023,0.000014
8202.253906,0.000014
8222.259766,0.000015
8242.264648,0.000015
8262.270508,0.000016
8282.276367,0.000015
8302.281250,0.000016
8322.287109,0.000017
8342.291992,0.000017
8362.297852,0.000018
8382.302734,0.000018
8402.308594,0.000019
8422.313477,0.000019
8442.319336,0.000018
8462.324219,0.000017
8482.330078,0.000018
8502.334961,0.000019
8522.340820,0.000021
8542.346680,0.000020
8562.351562,0.000020
8582.357422,0.000020
8602.362305,0.000021
8622.368164,0.000019
8642.373047,0.000016
8662.378906,0.000015
8682.383789,0.000017
8702.389648,0.000025
8722.394531,0.000031
8742.400391,0.000031
8762.405273,0.000029
8782.411133,0.000026
8802.416016,0.000025
8822.421875,0.000018
8882.438477,0.000025
8902.443359,0.000021
8922.449219,0.000020
8942.454102,0.000024
8962.459961,0.000022
8982.464844,0.000020
9002.470703,0.000021
9022.476562,0.000021
9042.481445,0.000022
9062.487305,0.000023
9082.492188,0.000021
9102.498047,0.000022
9122.502930,0.000022
9142.508789,0.000021
9162.513672,0.000021
9182.519531,0.000019
9202.524414,0.000020
9222.530273,0.000023
9242.535156,0.000020
9262.541016,0.000020
9282.546875,0.000020
9302.551758,0.000019
9322.557617,0.000020
9342.562500,0.000022
9362.568359,0.000020
9382.573242,0.000019
9402.579102,0.000019
9422.583984,0.000019
9442.589844,0.000019
9462.594727,0.000019
9482.600586,0.000019
9502.606445,0.000018
9522.611328,0.000019
9542.617188,0.000018
9562.622070,0.000019
9582.627930,0.000017
9602.632812,0.000018
9622.638672,0.000018
9642.643555,0.000017
9662.649414,0.000019
9682.655273,0.000016
9702.660156,0.000015
9722.666016,0.000016
9742.670898,0.000017
9762.676758,0.000016
9782.681641,0.000016
9802.687500,0.000016
9822.692383,0.000015
9842.698242,0.000016
9862.703125,0.000014
9882.708984,0.000015
9902.714844,0.000016
9922.719727,0.000014
9942.725586,0.000014
9962.730469,0.000016
9982.736328,0.000013
10002.741211,0.000015
10022.747070,0.000014
10042.751953,0.000013
10062.757812,0.000014
10082.762695,0.000014
10102.768555,0.000013
10122.774414,0.000012
10142.779297,0.000013
10162.785156,0.000013
10182.790039,0.000014
10202.795898,0.000013
10222.800781,0.000011
10242.806641,0.000012
10262.811523,0.000011
10282.817383,0.000012
10302.823242,0.000012
10322.828125,0.000011
10342.833984,0.000011
10362.838867,0.000012
10382.843750,0.000011
10402.849609,0.000011
10422.855469,0.000012
10442.861328,0.000011
10462.866211,0.000012
10482.872070,0.000010
10502.876953,0.000010
10522.881836,0.000010
10542.887695,0.000011
10562.892578,0.000010
10582.899414,0.000010
10602.904297,0.000009
10622.910156,0.000011
10642.915039,0.000012
10662.919922,0.000009
10682.925781,0.000010
10702.930664,0.000011
10722.936523,0.000008
10742.942383,0.000010
10762.948242,0.000010
10782.953125,0.000008
10802.958008,0.000010
10822.963867,0.000009
10842.968750,0.000009
10862.974609,0.000009
10882.980469,0.000009
10902.986328,0.000008
10922.991211,0.000009
10942.996094,0.000008
10963.001953,0.000008
10983.006836,0.000009
11003.012695,0.000007
11004.012695,0.000000
11005.012695,0.000000
