# WAVELENGTH_UNIT	AA
# COMPNAME       	SPITZER_IRAC_58
# NAME           	SPITZER_IRAC_58
# DETECTOR       	photon
#
## WAVELENGTH	None	AA
## THROUGHPUT	None	filter throughput definition
#
WAVELENGTH,THROUGHPUT
46260.000000,0.000000
46300.000000,0.000065
46340.000000,0.000070
46380.000000,0.000079
46420.000000,0.000091
46460.000000,0.000100
46510.000000,0.000105
46550.000000,0.000103
46590.000000,0.000100
46630.000000,0.000091
46670.000000,0.000073
46720.000000,0.000064
46760.000000,0.000074
46800.000000,0.000078
46840.000000,0.000070
46880.000000,0.000065
46930.000000,0.000071
46970.000000,0.000079
47010.000000,0.000072
47060.000000,0.000050
47100.000000,0.000024
47140.000000,0.000005
47180.000000,0.000010
47230.000000,0.000022
47270.000000,0.000014
47310.000000,0.000072
47360.000000,0.000075
47400.000000,0.000065
47440.000000,0.000046
47490.000000,0.000036
47530.000000,0.000029
47570.000000,0.000031
47620.000000,0.000068
47660.000000,0.000077
47700.000000,0.000091
47750.000000,0.000101
47790.000000,0.000103
47840.000000,0.000103
47880.000000,0.000108
47920.000000,0.000103
47970.000000,0.000089
48010.000000,0.000077
48060.000000,0.000074
48100.000000,0.000068
48150.000000,0.000067
48190.000000,0.000074
48240.000000,0.000075
48280.000000,0.000064
48330.000000,0.000054
48370.000000,0.000057
48420.000000,0.000066
48460.000000,0.000081
48510.000000,0.000106
48550.000000,0.000127
48600.000000,0.000132
48640.000000,0.000118
48690.000000,0.000088
48740.000000,0.000057
48780.000000,0.000040
48830.000000,0.000064
48870.000000,0.000123
48920.000000,0.000200
48970.000000,0.000290
49010.000000,0.000418
49060.000000,0.000582
49100.000000,0.000047
49150.000000,0.000160
49200.000000,0.000351
49240.000000,0.000669
49290.000000,0.001159
49340.000000,0.001900
49390.000000,0.003030
49430.000000,0.004231
49480.000000,0.006523
49530.000000,0.009625
49570.000000,0.013520
49620.000000,0.018150
49670.000000,0.023320
49720.000000,0.028810
49760.000000,0.034550
49810.000000,0.040360
49860.000000,0.046150
49910.000000,0.051910
49960.000000,0.057520
50000.000000,0.063040
50050.000000,0.068450
50100.000000,0.073600
50150.000000,0.078550
50200.000000,0.083160
50250.000000,0.087200
50300.000000,0.090530
50340.000000,0.092920
50390.000000,0.094310
50440.000000,0.094720
50490.000000,0.094310
50540.000000,0.093580
50590.000000,0.092840
50640.000000,0.092490
50690.000000,0.092930
50740.000000,0.094190
50790.000000,0.096370
50840.000000,0.099370
50890.000000,0.102800
50940.000000,0.106500
50990.000000,0.110100
51040.000000,0.113500
51090.000000,0.116300
51140.000000,0.118500
51190.000000,0.120200
51240.000000,0.121300
51290.000000,0.121800
51340.000000,0.122000
51390.000000,0.121800
51440.000000,0.121600
51490.000000,0.121200
51550.000000,0.120600
51600.000000,0.120100
51650.000000,0.119700
51700.000000,0.119200
51750.000000,0.118900
51800.000000,0.118700
51850.000000,0.118600
51910.000000,0.118800
51960.000000,0.119400
52010.000000,0.120400
52060.000000,0.121700
52120.000000,0.123500
52170.000000,0.125500
52220.000000,0.127700
52270.000000,0.129700
52330.000000,0.131600
52380.000000,0.133400
52430.000000,0.134500
52480.000000,0.135000
52540.000000,0.135100
52590.000000,0.134600
52640.000000,0.133600
52700.000000,0.132300
52750.000000,0.130700
52810.000000,0.128600
52860.000000,0.126500
52910.000000,0.124900
52970.000000,0.123300
53020.000000,0.122200
53080.000000,0.122100
53130.000000,0.122700
53180.000000,0.124100
53240.000000,0.126100
53290.000000,0.128600
53350.000000,0.131400
53400.000000,0.134000
53460.000000,0.136600
53510.000000,0.138800
53570.000000,0.140200
53620.000000,0.141200
53680.000000,0.142000
53740.000000,0.142500
53790.000000,0.142800
53850.000000,0.143200
53900.000000,0.143600
53960.000000,0.143600
54020.000000,0.143600
54070.000000,0.143600
54130.000000,0.143300
54180.000000,0.143300
54240.000000,0.143000
54300.000000,0.142400
54360.000000,0.141900
54410.000000,0.141800
54470.000000,0.141700
54530.000000,0.141400
54580.000000,0.141200
54640.000000,0.141200
54700.000000,0.141100
54760.000000,0.141000
54810.000000,0.141200
54870.000000,0.141200
54930.000000,0.141000
54990.000000,0.141000
55050.000000,0.141000
55110.000000,0.140500
55160.000000,0.140300
55220.000000,0.140400
55280.000000,0.140400
55340.000000,0.141000
55400.000000,0.141900
55460.000000,0.143500
55520.000000,0.145500
55580.000000,0.147400
55640.000000,0.149100
55700.000000,0.150600
55760.000000,0.151800
55820.000000,0.152300
55880.000000,0.152100
55940.000000,0.151700
56000.000000,0.151300
56060.000000,0.150800
56120.000000,0.150200
56180.000000,0.149700
56240.000000,0.149400
56300.000000,0.149400
56360.000000,0.149800
56430.000000,0.150400
56490.000000,0.151100
56550.000000,0.152100
56610.000000,0.153200
56670.000000,0.154300
56730.000000,0.155700
56800.000000,0.156500
56860.000000,0.156900
56920.000000,0.157200
56980.000000,0.156700
57050.000000,0.156300
57110.000000,0.156000
57170.000000,0.155300
57230.000000,0.155400
57300.000000,0.156100
57360.000000,0.157200
57420.000000,0.159000
57490.000000,0.160700
57550.000000,0.161800
57620.000000,0.163000
57680.000000,0.163400
57740.000000,0.162300
57810.000000,0.161300
57870.000000,0.160000
57940.000000,0.158500
58000.000000,0.158100
58070.000000,0.158000
58130.000000,0.158500
58200.000000,0.159800
58260.000000,0.160800
58330.000000,0.161600
58390.000000,0.162400
58460.000000,0.163000
58530.000000,0.163500
58590.000000,0.164000
58660.000000,0.164200
58730.000000,0.164600
58790.000000,0.165600
58860.000000,0.165700
58930.000000,0.165900
58990.000000,0.166500
59060.000000,0.166000
59130.000000,0.165600
59190.000000,0.165200
59260.000000,0.164300
59330.000000,0.164200
59400.000000,0.163900
59470.000000,0.163700
59530.000000,0.164000
59600.000000,0.165000
59670.000000,0.166800
59740.000000,0.168100
59810.000000,0.168700
59880.000000,0.169800
59950.000000,0.169900
60020.000000,0.168800
60090.000000,0.168100
60160.000000,0.167100
60230.000000,0.165800
60300.000000,0.164700
60370.000000,0.164200
60440.000000,0.164900
60510.000000,0.165700
60580.000000,0.165500
60650.000000,0.166300
60720.000000,0.167600
60790.000000,0.167400
60860.000000,0.166900
60930.000000,0.166700
61010.000000,0.165800
61080.000000,0.164700
61150.000000,0.163700
61220.000000,0.162000
61290.000000,0.160400
61370.000000,0.159500
61440.000000,0.159000
61510.000000,0.158700
61590.000000,0.158800
61660.000000,0.159100
61730.000000,0.159400
61810.000000,0.160500
61880.000000,0.161900
61950.000000,0.162700
62030.000000,0.163600
62100.000000,0.164100
62180.000000,0.163400
62250.000000,0.162000
62330.000000,0.159800
62400.000000,0.156800
62480.000000,0.153700
62550.000000,0.151200
62630.000000,0.149300
62700.000000,0.148500
62780.000000,0.149000
62850.000000,0.150400
62930.000000,0.152900
63010.000000,0.155700
63080.000000,0.157900
63160.000000,0.159500
63240.000000,0.160500
63310.000000,0.160500
63390.000000,0.160400
63470.000000,0.160000
63550.000000,0.158500
63630.000000,0.156900
63700.000000,0.153900
63780.000000,0.148000
63860.000000,0.140300
63940.000000,0.130600
64020.000000,0.119700
64100.000000,0.109500
64180.000000,0.099760
64260.000000,0.090160
64340.000000,0.080700
64420.000000,0.070250
64500.000000,0.058410
64580.000000,0.045630
64660.000000,0.033190
64740.000000,0.022530
64820.000000,0.014270
64900.000000,0.008504
64980.000000,0.004826
65060.000000,0.002741
65140.000000,0.001650
65230.000000,0.001036
65310.000000,0.000657
65390.000000,0.000441
65470.000000,0.000320
65560.000000,0.000218
65640.000000,0.000133
65720.000000,0.000090
65810.000000,0.000141
65890.000000,0.000160
65970.000000,0.000187
66060.000000,0.000088
66140.000000,0.000108
66230.000000,0.000084
66310.000000,0.000191
66400.000000,0.000128
66480.000000,0.000086
66570.000000,0.000084
66650.000000,0.000104
66740.000000,0.000113
66820.000000,0.000096
66910.000000,0.000029
67000.000000,0.000015
67080.000000,0.000041
67170.000000,0.000046
67260.000000,0.000074
67340.000000,0.000120
67430.000000,0.000056
67520.000000,0.000070
67610.000000,0.000060
67700.000000,0.000160
67780.000000,0.000128
67870.000000,0.000067
67960.000000,0.000125
68050.000000,0.000138
68140.000000,0.000174
68230.000000,0.000051
68320.000000,0.000094
68410.000000,0.000106
68500.000000,0.000100
68590.000000,0.000088
68680.000000,0.000074
68770.000000,0.000069
68860.000000,0.000086
68960.000000,0.000000
